#
# Source: https://hallcweb.jlab.org/resdata/database/
# SLAC experiment e8920 deuterium, with Whitlow normalization 0.949. 
# Uncertainties shown are statistical only. 
# At least 5% systematic uncertainties are estimated, but not reflected in this data set.
#
# E      EP       Theta       Q^2           W^2       Nu       Epsilon    Gamma         x        Sigma         Uncertainty
# (Gev)  (Gev)    (degrees)   ((Gev/c)^2)   (Gev^2)   (Gev)                                      (nb/Ser*Gev)
#
7.000    6.585    6.000       0.505         1.156     0.415    0.993      1.381e-002    0.648    1.972e+003    4.308e+002    
7.000    6.563    6.000       0.503         1.197     0.437    0.992      1.544e-002    0.614    1.652e+003    1.059e+003    
7.000    6.517    6.000       0.500         1.286     0.483    0.992      1.862e-002    0.551    5.304e+003    7.707e+002    
7.000    6.494    6.000       0.498         1.332     0.506    0.992      2.008e-002    0.525    7.646e+003    3.572e+002    
7.000    6.470    6.000       0.496         1.378     0.530    0.991      2.142e-002    0.499    9.337e+003    3.319e+002    
7.000    6.446    6.000       0.494         1.426     0.554    0.991      2.268e-002    0.476    1.199e+004    3.580e+002    
7.000    6.421    6.000       0.492         1.474     0.579    0.991      2.381e-002    0.453    1.394e+004    3.693e+002    
7.000    6.396    6.000       0.491         1.523     0.604    0.991      2.485e-002    0.433    1.396e+004    3.522e+002    
7.000    6.371    6.000       0.489         1.573     0.629    0.990      2.581e-002    0.414    1.263e+004    3.221e+002    
7.000    6.345    6.000       0.487         1.623     0.655    0.990      2.665e-002    0.396    1.087e+004    2.908e+002    
7.000    6.319    6.000       0.485         1.674     0.681    0.989      2.740e-002    0.379    1.014e+004    2.731e+002    
7.000    6.293    6.000       0.483         1.727     0.707    0.989      2.809e-002    0.364    9.124e+003    2.832e+002    
7.000    6.266    6.000       0.481         1.777     0.734    0.988      2.857e-002    0.349    9.537e+003    7.378e+002    
7.000    6.124    6.000       0.470         2.053     0.876    0.986      3.019e-002    0.286    6.135e+003    6.761e+002    
7.000    6.095    6.000       0.467         2.111     0.905    0.985      3.033e-002    0.275    6.722e+003    1.507e+002    
7.000    6.065    6.000       0.465         2.170     0.935    0.984      3.039e-002    0.265    7.156e+003    1.282e+002    
7.000    6.035    6.000       0.463         2.229     0.965    0.984      3.041e-002    0.256    7.210e+003    1.274e+002    
7.000    6.004    6.000       0.460         2.289     0.996    0.983      3.036e-002    0.246    7.506e+003    1.282e+002    
7.000    5.973    6.000       0.458         2.350     1.027    0.982      3.028e-002    0.238    7.523e+003    1.262e+002    
7.000    5.941    6.000       0.456         2.412     1.059    0.981      3.012e-002    0.229    7.513e+003    1.248e+002    
7.000    5.909    6.000       0.453         2.474     1.091    0.980      2.995e-002    0.221    7.464e+003    1.307e+002    
7.000    5.877    6.000       0.451         2.538     1.123    0.980      2.976e-002    0.214    6.862e+003    3.240e+002    
7.000    5.709    6.000       0.438         2.863     1.291    0.974      2.829e-002    0.181    6.239e+003    8.232e+002    
7.000    5.675    6.000       0.435         2.931     1.325    0.973      2.797e-002    0.175    5.799e+003    9.900e+001    
7.000    5.639    6.000       0.432         3.000     1.361    0.972      2.758e-002    0.169    5.775e+003    8.218e+001    
7.000    5.604    6.000       0.430         3.070     1.396    0.970      2.723e-002    0.164    5.739e+003    8.099e+001    
7.000    5.568    6.000       0.427         3.140     1.432    0.969      2.685e-002    0.159    5.600e+003    7.885e+001    
7.000    5.531    6.000       0.424         3.211     1.469    0.968      2.644e-002    0.154    5.260e+003    7.610e+001    
7.000    5.495    6.000       0.421         3.283     1.505    0.966      2.607e-002    0.149    5.444e+003    9.220e+001    
7.000    5.225    6.000       0.401         3.810     1.775    0.954      2.317e-002    0.120    3.534e+003    5.511e+002    
7.000    5.185    6.000       0.398         3.889     1.815    0.951      2.276e-002    0.117    3.956e+003    6.346e+001    
7.000    5.145    6.000       0.395         3.968     1.855    0.949      2.236e-002    0.113    3.920e+003    5.546e+001    
13.500   12.066   6.000       1.785         1.788     1.434    0.988      7.662e-003    0.663    3.778e+002    3.383e+001    
13.500   12.039   6.000       1.781         1.841     1.461    0.988      7.947e-003    0.649    4.165e+002    2.177e+001    
13.500   12.012   6.000       1.777         1.896     1.488    0.988      8.224e-003    0.636    3.824e+002    1.578e+001    
13.500   11.985   6.000       1.773         1.952     1.515    0.988      8.492e-003    0.624    4.307e+002    1.358e+001    
13.500   11.957   6.000       1.769         2.008     1.543    0.987      8.744e-003    0.611    4.574e+002    1.282e+001    
13.500   11.929   6.000       1.764         2.062     1.571    0.987      8.967e-003    0.598    4.433e+002    1.262e+001    
13.500   11.901   6.000       1.760         2.120     1.599    0.987      9.202e-003    0.587    4.798e+002    1.293e+001    
13.500   11.872   6.000       1.756         2.179     1.628    0.986      9.422e-003    0.575    5.313e+002    1.342e+001    
13.500   11.843   6.000       1.752         2.238     1.657    0.986      9.634e-003    0.563    5.667e+002    1.369e+001    
13.500   11.813   6.000       1.747         2.298     1.687    0.986      9.829e-003    0.552    5.550e+002    1.343e+001    
13.500   11.783   6.000       1.743         2.359     1.717    0.985      1.002e-002    0.541    6.051e+002    1.375e+001    
13.500   11.753   6.000       1.738         2.421     1.747    0.985      1.020e-002    0.530    6.001e+002    1.361e+001    
13.500   11.722   6.000       1.734         2.484     1.778    0.985      1.036e-002    0.520    6.288e+002    1.372e+001    
13.500   11.691   6.000       1.729         2.547     1.809    0.984      1.052e-002    0.509    6.571e+002    1.392e+001    
13.500   11.659   6.000       1.724         2.611     1.841    0.984      1.066e-002    0.499    6.352e+002    1.331e+001    
13.500   11.627   6.000       1.720         2.673     1.873    0.984      1.077e-002    0.489    6.672e+002    1.336e+001    
13.500   11.595   6.000       1.715         2.739     1.905    0.983      1.090e-002    0.480    6.516e+002    1.284e+001    
13.500   11.562   6.000       1.710         2.806     1.938    0.983      1.101e-002    0.470    6.646e+002    1.282e+001    
13.500   11.529   6.000       1.705         2.873     1.971    0.982      1.112e-002    0.461    6.832e+002    1.314e+001    
13.500   11.495   6.000       1.700         2.941     2.005    0.982      1.121e-002    0.452    6.880e+002    1.309e+001    
13.500   11.462   6.000       1.695         3.010     2.038    0.981      1.130e-002    0.443    7.178e+002    1.320e+001    
13.500   11.427   6.000       1.690         3.080     2.073    0.981      1.137e-002    0.434    6.911e+002    1.285e+001    
13.500   11.392   6.000       1.685         3.151     2.108    0.980      1.144e-002    0.426    7.250e+002    1.298e+001    
13.500   11.357   6.000       1.680         3.222     2.143    0.980      1.150e-002    0.418    7.180e+002    1.282e+001    
13.500   11.322   6.000       1.675         3.294     2.178    0.979      1.155e-002    0.410    7.320e+002    1.277e+001    
13.500   11.286   6.000       1.669         3.367     2.214    0.979      1.159e-002    0.402    7.245e+002    1.269e+001    
13.500   11.250   6.000       1.664         3.441     2.250    0.978      1.163e-002    0.394    7.574e+002    1.443e+001    
13.500   11.213   6.000       1.659         3.516     2.287    0.978      1.166e-002    0.386    7.428e+002    1.858e+001    
13.500   11.176   6.000       1.653         3.591     2.324    0.977      1.168e-002    0.379    7.573e+002    3.240e+001    
16.000   14.493   6.000       2.541         1.169     1.507    0.990      1.966e-003    0.898    2.505e+001    3.193e+000    
16.000   14.472   6.000       2.537         1.210     1.528    0.990      2.218e-003    0.885    3.289e+001    2.758e+000    
16.000   14.451   6.000       2.533         1.254     1.549    0.989      2.483e-003    0.871    4.799e+001    2.690e+000    
16.000   14.429   6.000       2.529         1.300     1.571    0.989      2.743e-003    0.858    5.753e+001    2.658e+000    
16.000   14.407   6.000       2.526         1.346     1.593    0.989      3.000e-003    0.845    7.307e+001    2.757e+000    
16.000   14.384   6.000       2.522         1.392     1.616    0.989      3.253e-003    0.831    9.012e+001    2.909e+000    
16.000   14.361   6.000       2.517         1.438     1.639    0.989      3.487e-003    0.818    9.566e+001    2.932e+000    
16.000   14.338   6.000       2.513         1.486     1.662    0.989      3.732e-003    0.806    1.071e+002    3.023e+000    
16.000   14.314   6.000       2.509         1.535     1.686    0.988      3.972e-003    0.793    1.121e+002    3.061e+000    
16.000   14.290   6.000       2.505         1.585     1.710    0.988      4.208e-003    0.781    1.229e+002    3.193e+000    
16.000   14.265   6.000       2.501         1.636     1.735    0.988      4.437e-003    0.768    1.252e+002    3.123e+000    
16.000   14.240   6.000       2.496         1.687     1.760    0.988      4.662e-003    0.756    1.276e+002    3.015e+000    
16.000   14.215   6.000       2.492         1.737     1.785    0.988      4.869e-003    0.744    1.409e+002    3.024e+000    
16.000   14.189   6.000       2.487         1.790     1.811    0.987      5.083e-003    0.732    1.386e+002    2.946e+000    
16.000   14.163   6.000       2.483         1.844     1.837    0.987      5.292e-003    0.720    1.497e+002    3.004e+000    
16.000   14.137   6.000       2.478         1.899     1.863    0.987      5.498e-003    0.709    1.556e+002    3.096e+000    
16.000   14.110   6.000       2.473         1.954     1.890    0.987      5.695e-003    0.697    1.633e+002    3.317e+000    
16.000   14.082   6.000       2.469         2.011     1.918    0.987      5.885e-003    0.686    1.741e+002    3.659e+000    
16.000   14.055   6.000       2.464         2.068     1.945    0.986      6.073e-003    0.675    1.810e+002    4.062e+000    
16.000   14.027   6.000       2.459         2.126     1.973    0.986      6.254e-003    0.664    1.973e+002    4.776e+000    
16.000   13.998   6.000       2.454         2.182     2.002    0.986      6.411e-003    0.653    2.122e+002    5.927e+000    
16.000   13.970   6.000       2.449         2.241     2.030    0.985      6.582e-003    0.643    2.064e+002    6.084e+000    
16.000   13.940   6.000       2.444         2.301     2.060    0.985      6.740e-003    0.632    2.191e+002    6.046e+000    
16.000   13.911   6.000       2.439         2.362     2.089    0.985      6.899e-003    0.622    2.375e+002    6.166e+000    
16.000   13.881   6.000       2.433         2.424     2.119    0.985      7.048e-003    0.612    2.290e+002    6.041e+000    
16.000   13.850   6.000       2.428         2.487     2.150    0.984      7.188e-003    0.602    2.545e+002    6.658e+000    
16.000   13.820   6.000       2.423         2.550     2.180    0.984      7.329e-003    0.592    2.513e+002    7.161e+000    
16.000   13.788   6.000       2.417         2.615     2.212    0.984      7.456e-003    0.582    2.612e+002    8.192e+000    
16.000   13.757   6.000       2.412         2.680     2.243    0.983      7.583e-003    0.573    2.730e+002    1.003e+001    
16.000   13.725   6.000       2.406         2.742     2.275    0.983      7.688e-003    0.564    2.501e+002    1.263e+001    
16.000   13.693   6.000       2.400         2.809     2.307    0.983      7.802e-003    0.554    2.878e+002    1.426e+001    
16.000   13.660   6.000       2.395         2.876     2.340    0.982      7.907e-003    0.545    2.811e+002    1.397e+001    
16.000   13.627   6.000       2.389         2.945     2.373    0.982      8.009e-003    0.536    2.955e+002    1.418e+001    
16.000   13.348   6.000       2.340         3.519     2.652    0.978      8.611e-003    0.470    3.176e+002    2.586e+001    
16.000   13.311   6.000       2.333         3.591     2.689    0.978      8.648e-003    0.462    3.281e+002    1.896e+001    
16.000   13.274   6.000       2.327         3.667     2.726    0.977      8.695e-003    0.455    3.369e+002    1.545e+001    
16.000   13.237   6.000       2.320         3.744     2.763    0.977      8.739e-003    0.448    3.309e+002    1.369e+001    
16.000   13.199   6.000       2.314         3.822     2.801    0.976      8.775e-003    0.440    3.367e+002    1.370e+001    
16.000   13.161   6.000       2.307         3.901     2.839    0.976      8.808e-003    0.433    3.356e+002    1.362e+001    
16.000   13.122   6.000       2.300         3.980     2.878    0.975      8.834e-003    0.426    3.515e+002    1.380e+001    
19.500   17.367   6.000       3.710         1.173     2.133    0.988      1.145e-003    0.927    9.048e+000    8.402e-001    
19.500   17.346   6.000       3.706         1.217     2.154    0.988      1.301e-003    0.917    8.284e+000    7.108e-001    
19.500   17.325   6.000       3.701         1.261     2.175    0.988      1.457e-003    0.907    1.123e+001    6.834e-001    
19.500   17.304   6.000       3.697         1.304     2.196    0.987      1.603e-003    0.897    1.289e+001    6.626e-001    
19.500   17.282   6.000       3.692         1.350     2.218    0.987      1.757e-003    0.887    1.472e+001    6.559e-001    
19.500   17.260   6.000       3.688         1.397     2.240    0.987      1.909e-003    0.877    1.907e+001    6.991e-001    
19.500   17.237   6.000       3.683         1.445     2.263    0.987      2.060e-003    0.867    2.000e+001    7.064e-001    
19.500   17.214   6.000       3.678         1.491     2.286    0.987      2.200e-003    0.857    2.222e+001    7.420e-001    
19.500   17.191   6.000       3.673         1.540     2.309    0.987      2.348e-003    0.848    2.458e+001    7.830e-001    
19.500   17.167   6.000       3.668         1.590     2.333    0.987      2.494e-003    0.838    2.607e+001    8.250e-001    
19.500   17.143   6.000       3.663         1.641     2.357    0.986      2.638e-003    0.828    2.916e+001    8.993e-001    
19.500   17.119   6.000       3.657         1.693     2.381    0.986      2.781e-003    0.819    2.888e+001    9.533e-001    
19.500   17.094   6.000       3.652         1.742     2.406    0.986      2.912e-003    0.809    3.210e+001    1.083e+000    
19.500   17.069   6.000       3.647         1.796     2.431    0.986      3.050e-003    0.799    3.297e+001    1.233e+000    
19.500   17.043   6.000       3.641         1.850     2.457    0.986      3.186e-003    0.790    3.770e+001    1.327e+000    
19.500   17.017   6.000       3.636         1.904     2.483    0.985      3.319e-003    0.780    3.875e+001    1.297e+000    
19.500   16.991   6.000       3.630         1.960     2.509    0.985      3.451e-003    0.771    4.167e+001    1.297e+000    
19.500   16.964   6.000       3.624         2.016     2.536    0.985      3.579e-003    0.762    4.549e+001    1.323e+000    
19.500   16.937   6.000       3.619         2.071     2.563    0.985      3.697e-003    0.752    4.829e+001    1.368e+000    
19.500   16.909   6.000       3.613         2.129     2.591    0.985      3.819e-003    0.743    4.931e+001    1.424e+000    
19.500   16.881   6.000       3.607         2.187     2.619    0.984      3.940e-003    0.734    5.323e+001    1.531e+000    
19.500   16.853   6.000       3.601         2.247     2.647    0.984      4.059e-003    0.725    5.878e+001    1.667e+000    
19.500   16.824   6.000       3.594         2.307     2.676    0.984      4.174e-003    0.716    6.151e+001    1.781e+000    
19.500   16.795   6.000       3.588         2.369     2.705    0.984      4.286e-003    0.707    6.216e+001    1.894e+000    
19.500   16.766   6.000       3.582         2.430     2.734    0.983      4.397e-003    0.698    6.659e+001    2.105e+000    
19.500   16.736   6.000       3.576         2.490     2.764    0.983      4.495e-003    0.689    6.618e+001    2.300e+000    
19.500   16.706   6.000       3.569         2.554     2.794    0.983      4.599e-003    0.681    7.127e+001    2.398e+000    
19.500   16.675   6.000       3.563         2.618     2.825    0.983      4.700e-003    0.672    7.242e+001    2.318e+000    
19.500   16.644   6.000       3.556         2.683     2.856    0.982      4.798e-003    0.663    7.328e+001    2.242e+000    
19.500   16.613   6.000       3.549         2.749     2.887    0.982      4.894e-003    0.655    7.997e+001    2.326e+000    
19.500   16.581   6.000       3.542         2.816     2.919    0.982      4.985e-003    0.647    8.376e+001    2.435e+000    
19.500   16.549   6.000       3.536         2.883     2.951    0.981      5.074e-003    0.638    8.560e+001    2.559e+000    
19.500   16.517   6.000       3.529         2.952     2.983    0.981      5.162e-003    0.630    8.567e+001    2.680e+000    
19.500   16.484   6.000       3.522         3.021     3.016    0.981      5.245e-003    0.622    9.225e+001    2.942e+000    
19.500   16.450   6.000       3.514         3.087     3.050    0.980      5.314e-003    0.614    9.194e+001    3.176e+000    
19.500   16.417   6.000       3.507         3.158     3.083    0.980      5.393e-003    0.606    9.936e+001    3.660e+000    
19.500   16.383   6.000       3.500         3.229     3.117    0.980      5.467e-003    0.598    9.632e+001    3.896e+000    
19.500   16.348   6.000       3.493         3.301     3.152    0.979      5.537e-003    0.590    9.946e+001    3.777e+000    
19.500   16.314   6.000       3.485         3.375     3.186    0.979      5.607e-003    0.583    1.030e+002    3.635e+000    
19.500   16.278   6.000       3.478         3.448     3.222    0.979      5.670e-003    0.575    1.049e+002    3.515e+000    
19.500   16.243   6.000       3.470         3.523     3.257    0.978      5.734e-003    0.568    1.113e+002    3.601e+000    
19.500   16.207   6.000       3.463         3.599     3.293    0.978      5.793e-003    0.560    1.107e+002    3.581e+000    
19.500   16.171   6.000       3.455         3.675     3.329    0.977      5.851e-003    0.553    1.137e+002    3.625e+000    
19.500   16.134   6.000       3.447         3.752     3.366    0.977      5.903e-003    0.546    1.217e+002    3.972e+000    
19.500   16.097   6.000       3.439         3.830     3.403    0.977      5.955e-003    0.539    1.185e+002    4.306e+000    
19.500   16.059   6.000       3.431         3.905     3.441    0.976      5.993e-003    0.531    1.239e+002    4.752e+000    
19.500   16.021   6.000       3.423         3.984     3.479    0.976      6.038e-003    0.524    1.270e+002    4.783e+000    
13.300   8.459    15.000      7.667         2.298     4.841    0.877      1.880e-004    0.844    6.562e-001    2.933e-001    
13.300   8.437    15.000      7.647         2.359     4.863    0.876      1.946e-004    0.838    2.466e-001    1.154e-001    
13.300   8.415    15.000      7.627         2.421     4.885    0.875      2.012e-004    0.832    5.593e-001    1.316e-001    
13.300   8.393    15.000      7.607         2.484     4.907    0.874      2.077e-004    0.826    6.456e-001    1.179e-001    
13.300   8.370    15.000      7.586         2.547     4.930    0.873      2.142e-004    0.820    4.579e-001    8.675e-002    
13.300   8.347    15.000      7.565         2.608     4.953    0.872      2.203e-004    0.814    5.335e-001    8.362e-002    
