#
# Source: https://hallcweb.jlab.org/resdata/database/
# SLAC experiment e49a10 deuterium. 
# Uncertainties shown are statistical only.
# At least 5% systematic uncertainties are estimated, but not reflected in this data set.
#
# E      EP       Theta       Q^2           W^2       Nu       Epsilon    Gamma         x        Sigma         Uncertainty
# (Gev)  (Gev)    (degrees)   ((Gev/c)^2)   (Gev^2)   (Gev)                                      (nb/Ser*Gev)
#
4.892    4.394    10.000      0.653         1.160     0.498    0.979      3.662e-003    0.699    4.789e+002    5.415e+001    
4.892    4.385    10.000      0.652         1.179     0.507    0.979      3.877e-003    0.685    5.282e+002    5.472e+001    
4.892    4.376    10.000      0.650         1.197     0.516    0.979      4.060e-003    0.672    6.184e+002    5.250e+001    
4.892    4.367    10.000      0.649         1.217     0.525    0.979      4.269e-003    0.659    6.329e+002    4.870e+001    
4.892    4.358    10.000      0.648         1.234     0.534    0.978      4.446e-003    0.646    6.720e+002    4.796e+001    
4.892    4.349    10.000      0.646         1.252     0.543    0.978      4.620e-003    0.634    8.008e+002    4.906e+001    
4.892    4.340    10.000      0.645         1.270     0.552    0.978      4.791e-003    0.623    8.955e+002    4.974e+001    
4.892    4.331    10.000      0.644         1.288     0.561    0.978      4.959e-003    0.611    9.729e+002    5.028e+001    
4.892    4.322    10.000      0.642         1.306     0.570    0.977      5.124e-003    0.601    1.152e+003    5.504e+001    
4.892    4.313    10.000      0.641         1.325     0.579    0.977      5.286e-003    0.590    1.407e+003    5.354e+001    
4.892    4.304    10.000      0.640         1.343     0.588    0.977      5.445e-003    0.580    1.624e+003    5.215e+001    
4.892    4.295    10.000      0.638         1.362     0.597    0.977      5.600e-003    0.570    1.816e+003    5.429e+001    
4.892    4.286    10.000      0.637         1.381     0.606    0.976      5.753e-003    0.560    1.974e+003    5.597e+001    
4.892    4.277    10.000      0.636         1.399     0.615    0.976      5.902e-003    0.551    2.123e+003    5.749e+001    
4.892    4.268    10.000      0.634         1.418     0.624    0.976      6.048e-003    0.542    2.329e+003    5.966e+001    
4.892    4.259    10.000      0.633         1.435     0.633    0.976      6.165e-003    0.533    2.342e+003    6.174e+001    
4.892    4.250    10.000      0.632         1.454     0.642    0.975      6.305e-003    0.524    2.558e+003    6.263e+001    
4.892    4.241    10.000      0.630         1.471     0.651    0.975      6.416e-003    0.516    2.669e+003    6.015e+001    
4.892    4.232    10.000      0.629         1.491     0.660    0.975      6.550e-003    0.508    2.712e+003    6.009e+001    
4.892    4.223    10.000      0.628         1.508     0.669    0.974      6.655e-003    0.500    2.701e+003    5.949e+001    
4.892    4.213    10.000      0.626         1.528     0.679    0.974      6.775e-003    0.491    2.776e+003    5.983e+001    
4.892    4.204    10.000      0.625         1.545     0.688    0.974      6.875e-003    0.484    2.663e+003    5.807e+001    
4.892    4.195    10.000      0.624         1.565     0.697    0.973      6.997e-003    0.477    2.579e+003    6.085e+001    
4.892    4.186    10.000      0.622         1.583     0.706    0.973      7.091e-003    0.470    2.405e+003    6.165e+001    
4.892    4.177    10.000      0.621         1.600     0.715    0.973      7.183e-003    0.463    2.400e+003    5.676e+001    
4.892    4.168    10.000      0.620         1.618     0.724    0.973      7.272e-003    0.456    2.356e+003    5.561e+001    
4.892    4.159    10.000      0.618         1.636     0.733    0.972      7.359e-003    0.449    2.189e+003    5.320e+001    
4.892    4.150    10.000      0.617         1.656     0.742    0.972      7.468e-003    0.443    2.097e+003    5.171e+001    
4.892    4.141    10.000      0.616         1.674     0.751    0.972      7.550e-003    0.437    1.977e+003    4.992e+001    
4.892    4.132    10.000      0.614         1.693     0.760    0.971      7.629e-003    0.431    1.896e+003    5.177e+001    
4.892    4.123    10.000      0.613         1.711     0.769    0.971      7.707e-003    0.425    1.792e+003    4.804e+001    
4.892    4.114    10.000      0.612         1.729     0.778    0.970      7.781e-003    0.419    1.755e+003    4.319e+001    
4.892    4.105    10.000      0.610         1.748     0.787    0.970      7.854e-003    0.413    1.732e+003    4.262e+001    
4.892    4.096    10.000      0.609         1.766     0.796    0.970      7.924e-003    0.408    1.754e+003    4.273e+001    
4.892    4.087    10.000      0.607         1.782     0.805    0.969      7.969e-003    0.402    1.579e+003    4.043e+001    
4.892    4.078    10.000      0.606         1.801     0.814    0.969      8.035e-003    0.397    1.600e+003    4.057e+001    
4.892    4.069    10.000      0.605         1.820     0.823    0.969      8.099e-003    0.392    1.570e+003    4.250e+001    
4.892    4.060    10.000      0.603         1.839     0.832    0.968      8.161e-003    0.387    1.513e+003    4.063e+001    
4.892    4.051    10.000      0.602         1.858     0.841    0.968      8.221e-003    0.382    1.548e+003    3.762e+001    
4.892    4.042    10.000      0.601         1.874     0.850    0.967      8.256e-003    0.377    1.505e+003    3.703e+001    
4.892    4.033    10.000      0.599         1.893     0.859    0.967      8.312e-003    0.372    1.471e+003    3.655e+001    
4.892    4.024    10.000      0.598         1.913     0.868    0.967      8.367e-003    0.367    1.445e+003    3.619e+001    
4.892    4.015    10.000      0.597         1.929     0.877    0.966      8.397e-003    0.363    1.430e+003    3.626e+001    
4.892    4.006    10.000      0.595         1.949     0.886    0.966      8.448e-003    0.358    1.426e+003    3.909e+001    
4.892    3.996    10.000      0.594         1.966     0.896    0.965      8.463e-003    0.353    1.444e+003    3.721e+001    
4.892    3.987    10.000      0.593         1.985     0.905    0.965      8.510e-003    0.349    1.447e+003    3.565e+001    
4.892    3.978    10.000      0.591         2.002     0.914    0.964      8.534e-003    0.345    1.464e+003    3.583e+001    
4.892    3.969    10.000      0.590         2.022     0.923    0.964      8.578e-003    0.341    1.504e+003    3.630e+001    
4.892    3.960    10.000      0.589         2.039     0.932    0.963      8.600e-003    0.337    1.536e+003    3.669e+001    
4.892    3.951    10.000      0.587         2.059     0.941    0.963      8.641e-003    0.333    1.513e+003    3.786e+001    
4.892    3.942    10.000      0.586         2.076     0.950    0.963      8.659e-003    0.329    1.547e+003    4.086e+001    
4.892    3.933    10.000      0.585         2.094     0.959    0.962      8.676e-003    0.325    1.628e+003    3.875e+001    
4.892    3.924    10.000      0.583         2.114     0.968    0.962      8.713e-003    0.321    1.582e+003    3.784e+001    
4.892    3.915    10.000      0.582         2.132     0.977    0.961      8.728e-003    0.317    1.594e+003    3.801e+001    
4.892    3.906    10.000      0.581         2.149     0.986    0.961      8.741e-003    0.314    1.685e+003    3.913e+001    
4.892    3.897    10.000      0.579         2.167     0.995    0.960      8.754e-003    0.310    1.733e+003    3.987e+001    
4.892    3.888    10.000      0.578         2.187     1.004    0.960      8.785e-003    0.307    1.682e+003    4.293e+001    
4.892    3.879    10.000      0.577         2.205     1.013    0.959      8.796e-003    0.303    1.740e+003    4.405e+001    
4.892    3.870    10.000      0.575         2.223     1.022    0.959      8.805e-003    0.300    1.790e+003    4.133e+001    
4.892    3.861    10.000      0.574         2.241     1.031    0.958      8.813e-003    0.297    1.806e+003    4.153e+001    
4.892    3.852    10.000      0.573         2.259     1.040    0.958      8.821e-003    0.293    1.886e+003    4.246e+001    
4.892    3.843    10.000      0.571         2.277     1.049    0.957      8.827e-003    0.290    1.864e+003    4.218e+001    
4.892    3.834    10.000      0.570         2.295     1.058    0.957      8.833e-003    0.287    1.921e+003    4.479e+001    
4.892    3.825    10.000      0.569         2.313     1.067    0.956      8.837e-003    0.284    1.914e+003    4.741e+001    
4.892    3.816    10.000      0.567         2.332     1.076    0.956      8.841e-003    0.281    1.893e+003    4.276e+001    
4.892    3.807    10.000      0.566         2.350     1.085    0.955      8.844e-003    0.278    1.859e+003    4.171e+001    
4.892    3.798    10.000      0.565         2.369     1.094    0.954      8.846e-003    0.275    1.774e+003    4.061e+001    
4.892    3.789    10.000      0.563         2.387     1.103    0.954      8.848e-003    0.272    1.818e+003    4.101e+001    
4.892    3.780    10.000      0.562         2.406     1.112    0.953      8.848e-003    0.269    1.791e+003    4.094e+001    
4.892    3.770    10.000      0.560         2.424     1.122    0.953      8.836e-003    0.266    1.781e+003    4.424e+001    
4.892    3.761    10.000      0.559         2.443     1.131    0.952      8.836e-003    0.263    1.781e+003    4.170e+001    
4.892    3.752    10.000      0.558         2.462     1.140    0.951      8.834e-003    0.261    1.684e+003    3.839e+001    
4.892    3.743    10.000      0.556         2.481     1.149    0.951      8.832e-003    0.258    1.732e+003    3.885e+001    
4.892    3.734    10.000      0.555         2.496     1.158    0.950      8.812e-003    0.255    1.710e+003    3.850e+001    
4.892    3.725    10.000      0.554         2.515     1.167    0.950      8.809e-003    0.253    1.587e+003    3.706e+001    
4.892    3.716    10.000      0.552         2.534     1.176    0.949      8.805e-003    0.250    1.687e+003    4.232e+001    
4.892    3.707    10.000      0.551         2.554     1.185    0.948      8.800e-003    0.248    1.621e+003    4.046e+001    
4.892    3.698    10.000      0.550         2.570     1.194    0.948      8.779e-003    0.245    1.595e+003    3.630e+001    
4.892    3.689    10.000      0.548         2.589     1.203    0.947      8.773e-003    0.243    1.618e+003    3.651e+001    
4.892    3.680    10.000      0.547         2.608     1.212    0.947      8.767e-003    0.240    1.624e+003    3.655e+001    
4.892    3.671    10.000      0.546         2.624     1.221    0.946      8.744e-003    0.238    1.619e+003    3.647e+001    
4.892    3.662    10.000      0.544         2.644     1.230    0.945      8.738e-003    0.236    1.562e+003    3.838e+001    
4.892    3.653    10.000      0.543         2.663     1.239    0.945      8.730e-003    0.234    1.596e+003    3.867e+001    
4.892    3.644    10.000      0.542         2.680     1.248    0.944      8.706e-003    0.231    1.630e+003    3.614e+001    
4.892    3.635    10.000      0.540         2.699     1.257    0.943      8.698e-003    0.229    1.609e+003    3.580e+001    
4.892    3.626    10.000      0.539         2.716     1.266    0.943      8.674e-003    0.227    1.556e+003    3.519e+001    
4.892    3.617    10.000      0.538         2.736     1.275    0.942      8.665e-003    0.225    1.648e+003    3.625e+001    
4.892    3.608    10.000      0.536         2.756     1.284    0.941      8.656e-003    0.223    1.603e+003    3.785e+001    
4.892    3.599    10.000      0.535         2.772     1.293    0.941      8.631e-003    0.220    1.692e+003    4.042e+001    
4.892    3.590    10.000      0.534         2.792     1.302    0.940      8.621e-003    0.218    1.615e+003    3.582e+001    
4.892    3.581    10.000      0.532         2.809     1.311    0.939      8.595e-003    0.216    1.633e+003    3.570e+001    
4.892    3.572    10.000      0.531         2.826     1.320    0.938      8.570e-003    0.214    1.611e+003    3.542e+001    
4.892    3.563    10.000      0.530         2.846     1.329    0.938      8.559e-003    0.212    1.630e+003    3.561e+001    
4.892    3.553    10.000      0.528         2.863     1.339    0.937      8.522e-003    0.210    1.543e+003    3.734e+001    
4.892    3.544    10.000      0.527         2.883     1.348    0.936      8.511e-003    0.208    1.626e+003    3.914e+001    
4.892    3.535    10.000      0.525         2.900     1.357    0.935      8.485e-003    0.206    1.617e+003    3.532e+001    
4.892    3.526    10.000      0.524         2.917     1.366    0.935      8.459e-003    0.204    1.633e+003    3.523e+001    
4.892    3.517    10.000      0.523         2.938     1.375    0.934      8.446e-003    0.203    1.651e+003    3.539e+001    
4.892    3.508    10.000      0.521         2.955     1.384    0.933      8.420e-003    0.201    1.585e+003    3.458e+001    
4.892    3.499    10.000      0.520         2.972     1.393    0.932      8.394e-003    0.199    1.595e+003    3.757e+001    
4.892    3.490    10.000      0.519         2.993     1.402    0.932      8.381e-003    0.197    1.591e+003    3.694e+001    
4.892    3.481    10.000      0.517         3.010     1.411    0.931      8.354e-003    0.195    1.541e+003    3.345e+001    
4.892    3.472    10.000      0.516         3.028     1.420    0.930      8.328e-003    0.194    1.541e+003    3.333e+001    
4.892    3.463    10.000      0.515         3.049     1.429    0.929      8.314e-003    0.192    1.535e+003    3.321e+001    
4.892    3.454    10.000      0.513         3.066     1.438    0.929      8.287e-003    0.190    1.474e+003    3.262e+001    
4.892    3.445    10.000      0.512         3.084     1.447    0.928      8.261e-003    0.189    1.479e+003    3.547e+001    
4.892    3.436    10.000      0.511         3.101     1.456    0.927      8.234e-003    0.187    1.456e+003    3.381e+001    
4.892    3.427    10.000      0.509         3.119     1.465    0.926      8.207e-003    0.185    1.470e+003    3.146e+001    
4.892    3.418    10.000      0.508         3.140     1.474    0.925      8.193e-003    0.184    1.439e+003    3.105e+001    
4.892    3.409    10.000      0.507         3.158     1.483    0.924      8.166e-003    0.182    1.401e+003    3.057e+001    
4.892    3.400    10.000      0.505         3.176     1.492    0.924      8.139e-003    0.180    1.331e+003    3.052e+001    
4.892    3.391    10.000      0.504         3.193     1.501    0.923      8.112e-003    0.179    1.399e+003    3.504e+001    
4.892    3.382    10.000      0.503         3.211     1.510    0.922      8.085e-003    0.177    1.401e+003    3.075e+001    
4.892    3.373    10.000      0.501         3.229     1.519    0.921      8.058e-003    0.176    1.383e+003    2.936e+001    
4.892    3.364    10.000      0.500         3.247     1.528    0.920      8.031e-003    0.174    1.350e+003    2.895e+001    
4.892    3.355    10.000      0.499         3.265     1.537    0.919      8.005e-003    0.173    1.314e+003    2.851e+001    
4.892    3.346    10.000      0.497         3.283     1.546    0.918      7.978e-003    0.171    1.240e+003    2.956e+001    
4.892    3.337    10.000      0.496         3.301     1.555    0.917      7.951e-003    0.170    1.253e+003    3.251e+001    
4.892    3.327    10.000      0.495         3.323     1.565    0.916      7.927e-003    0.168    1.328e+003    3.184e+001    
4.892    3.318    10.000      0.493         3.342     1.574    0.916      7.900e-003    0.167    1.325e+003    3.161e+001    
4.892    3.309    10.000      0.492         3.360     1.583    0.915      7.873e-003    0.166    1.337e+003    3.173e+001    
4.892    3.300    10.000      0.491         3.378     1.592    0.914      7.847e-003    0.164    1.264e+003    3.134e+001    
4.892    3.291    10.000      0.489         3.397     1.601    0.913      7.820e-003    0.163    1.272e+003    3.599e+001    
4.892    3.282    10.000      0.488         3.411     1.610    0.912      7.782e-003    0.161    1.314e+003    3.343e+001    
4.892    3.273    10.000      0.487         3.430     1.619    0.911      7.756e-003    0.160    1.294e+003    3.084e+001    
4.892    3.264    10.000      0.485         3.448     1.628    0.910      7.730e-003    0.159    1.315e+003    3.109e+001    
4.892    3.255    10.000      0.484         3.467     1.637    0.909      7.704e-003    0.157    1.328e+003    3.124e+001    
4.892    3.246    10.000      0.482         3.486     1.646    0.908      7.677e-003    0.156    1.286e+003    3.224e+001    
4.892    3.237    10.000      0.481         3.504     1.655    0.907      7.651e-003    0.155    1.284e+003    3.278e+001    
4.892    3.228    10.000      0.480         3.523     1.664    0.906      7.625e-003    0.154    1.238e+003    3.006e+001    
4.892    3.219    10.000      0.478         3.542     1.673    0.905      7.599e-003    0.152    1.288e+003    3.050e+001    
4.892    3.210    10.000      0.477         3.561     1.682    0.904      7.574e-003    0.151    1.295e+003    3.058e+001    
4.892    3.201    10.000      0.476         3.580     1.691    0.903      7.548e-003    0.150    1.201e+003    3.070e+001    
4.892    3.192    10.000      0.474         3.595     1.700    0.902      7.512e-003    0.149    1.223e+003    4.152e+001    
4.892    3.183    10.000      0.473         3.614     1.709    0.901      7.486e-003    0.148    1.221e+003    4.856e+001    
4.892    3.174    10.000      0.472         3.633     1.718    0.900      7.461e-003    0.146    1.201e+003    4.815e+001    
4.892    3.165    10.000      0.470         3.652     1.727    0.899      7.435e-003    0.145    1.301e+003    4.998e+001    
4.892    3.156    10.000      0.469         3.671     1.736    0.898      7.410e-003    0.144    1.261e+003    5.009e+001    
4.892    3.147    10.000      0.468         3.686     1.745    0.897      7.375e-003    0.143    1.251e+003    7.090e+001    
7.019    6.163    10.000      1.314         1.173     0.856    0.977      1.653e-003    0.818    9.910e+001    1.439e+001    
7.019    6.150    10.000      1.312         1.199     0.869    0.976      1.781e-003    0.804    9.152e+001    1.300e+001    
7.019    6.138    10.000      1.309         1.225     0.881    0.976      1.908e-003    0.792    1.390e+002    1.349e+001    
7.019    6.125    10.000      1.306         1.252     0.894    0.976      2.032e-003    0.779    1.372e+002    1.296e+001    
7.019    6.113    10.000      1.304         1.277     0.906    0.976      2.144e-003    0.767    1.706e+002    1.340e+001    
7.019    6.100    10.000      1.301         1.304     0.919    0.975      2.265e-003    0.754    1.985e+002    1.323e+001    
7.019    6.087    10.000      1.298         1.329     0.932    0.975      2.372e-003    0.742    2.241e+002    1.183e+001    
7.019    6.075    10.000      1.296         1.357     0.944    0.975      2.492e-003    0.731    2.544e+002    1.120e+001    
7.019    6.062    10.000      1.293         1.383     0.957    0.975      2.596e-003    0.720    2.775e+002    1.138e+001    
7.019    6.050    10.000      1.290         1.409     0.969    0.974      2.700e-003    0.710    3.255e+002    1.204e+001    
7.019    6.037    10.000      1.288         1.435     0.982    0.974      2.801e-003    0.699    3.517e+002    1.233e+001    
7.019    6.025    10.000      1.285         1.462     0.994    0.974      2.902e-003    0.689    3.561e+002    1.249e+001    
7.019    6.012    10.000      1.282         1.488     1.007    0.973      2.999e-003    0.678    3.837e+002    1.437e+001    
7.019    5.999    10.000      1.279         1.513     1.020    0.973      3.083e-003    0.668    4.237e+002    1.579e+001    
7.019    5.987    10.000      1.277         1.540     1.032    0.973      3.180e-003    0.659    4.116e+002    1.424e+001    
7.019    5.974    10.000      1.274         1.568     1.045    0.972      3.272e-003    0.650    3.962e+002    1.352e+001    
