#
# Source: https://hallcweb.jlab.org/resdata/database/
# SLAC experiment e8920 hydrogen, with Whitlow normalization 0.953. 
# Uncertainties shown are statistical only. 
# At least 5% systematic uncertainties are estimated, but not reflected in this data set.
#
# E      EP       Theta       Q^2           W^2       Nu       Epsilon    Gamma         x        Sigma         Uncertainty
# (Gev)  (Gev)    (degrees)   ((Gev/c)^2)   (Gev^2)   (Gev)                                      (nb/Ser*Gev)
#
7.000    6.563    6.000       0.503         1.197     0.437    0.992      1.544e-002    0.614    1.160e+003    4.806e+002    
7.000    6.517    6.000       0.500         1.286     0.483    0.992      1.862e-002    0.551    2.473e+003    5.188e+002    
7.000    6.494    6.000       0.498         1.332     0.506    0.992      2.008e-002    0.525    3.315e+003    2.393e+002    
7.000    6.470    6.000       0.496         1.378     0.530    0.991      2.142e-002    0.499    5.236e+003    2.391e+002    
7.000    6.446    6.000       0.494         1.426     0.554    0.991      2.268e-002    0.476    8.230e+003    2.798e+002    
7.000    6.421    6.000       0.492         1.474     0.579    0.991      2.381e-002    0.453    9.987e+003    2.955e+002    
7.000    6.396    6.000       0.491         1.523     0.604    0.991      2.485e-002    0.433    9.314e+003    2.708e+002    
7.000    6.371    6.000       0.489         1.573     0.629    0.990      2.581e-002    0.414    7.355e+003    2.318e+002    
7.000    6.345    6.000       0.487         1.623     0.655    0.990      2.665e-002    0.396    6.044e+003    2.051e+002    
7.000    6.319    6.000       0.485         1.674     0.681    0.989      2.740e-002    0.379    5.170e+003    1.854e+002    
7.000    6.293    6.000       0.483         1.727     0.707    0.989      2.809e-002    0.364    4.802e+003    1.945e+002    
7.000    6.266    6.000       0.481         1.777     0.734    0.988      2.857e-002    0.349    4.049e+003    4.558e+002    
7.000    6.124    6.000       0.470         2.053     0.876    0.986      3.019e-002    0.286    2.961e+003    4.586e+002    
7.000    6.095    6.000       0.467         2.111     0.905    0.985      3.033e-002    0.275    3.646e+003    1.094e+002    
7.000    6.065    6.000       0.465         2.170     0.935    0.984      3.039e-002    0.265    4.154e+003    9.766e+001    
7.000    6.035    6.000       0.463         2.229     0.965    0.984      3.041e-002    0.256    5.031e+003    1.071e+002    
7.000    6.004    6.000       0.460         2.289     0.996    0.983      3.036e-002    0.246    5.066e+003    1.053e+002    
7.000    5.973    6.000       0.458         2.350     1.027    0.982      3.028e-002    0.238    4.723e+003    9.692e+001    
7.000    5.941    6.000       0.456         2.412     1.059    0.981      3.012e-002    0.229    4.272e+003    9.021e+001    
7.000    5.909    6.000       0.453         2.474     1.091    0.980      2.995e-002    0.221    3.932e+003    9.080e+001    
7.000    5.877    6.000       0.451         2.538     1.123    0.980      2.976e-002    0.214    3.340e+003    2.202e+002    
7.000    5.709    6.000       0.438         2.863     1.291    0.974      2.829e-002    0.181    5.149e+003    9.511e+002    
7.000    5.675    6.000       0.435         2.931     1.325    0.973      2.797e-002    0.175    3.569e+003    9.857e+001    
7.000    5.639    6.000       0.432         3.000     1.361    0.972      2.758e-002    0.169    3.246e+003    7.735e+001    
7.000    5.604    6.000       0.430         3.070     1.396    0.970      2.723e-002    0.164    3.084e+003    7.439e+001    
7.000    5.568    6.000       0.427         3.140     1.432    0.969      2.685e-002    0.159    2.897e+003    7.117e+001    
7.000    5.531    6.000       0.424         3.211     1.469    0.968      2.644e-002    0.154    2.813e+003    7.008e+001    
7.000    5.495    6.000       0.421         3.283     1.505    0.966      2.607e-002    0.149    2.930e+003    8.509e+001    
7.000    5.457    6.000       0.419         3.356     1.543    0.965      2.564e-002    0.145    2.629e+003    1.223e+003    
7.000    5.225    6.000       0.401         3.810     1.775    0.954      2.317e-002    0.120    2.347e+003    4.362e+002    
7.000    5.185    6.000       0.398         3.889     1.815    0.951      2.276e-002    0.117    2.176e+003    4.603e+001    
7.000    5.145    6.000       0.395         3.968     1.855    0.949      2.236e-002    0.113    2.119e+003    4.006e+001    
13.500   12.352   6.000       1.827         1.208     1.148    0.991      3.449e-003    0.848    2.202e+001    9.781e+000    
13.500   12.331   6.000       1.824         1.252     1.169    0.990      3.855e-003    0.831    5.220e+001    8.150e+000    
13.500   12.308   6.000       1.820         1.295     1.192    0.990      4.225e-003    0.814    6.790e+001    7.301e+000    
13.500   12.286   6.000       1.817         1.341     1.214    0.990      4.614e-003    0.798    1.482e+002    8.745e+000    
13.500   12.263   6.000       1.814         1.388     1.237    0.990      4.993e-003    0.781    2.054e+002    9.530e+000    
13.500   12.240   6.000       1.810         1.435     1.260    0.990      5.365e-003    0.766    3.031e+002    1.092e+001    
13.500   12.216   6.000       1.807         1.484     1.284    0.990      5.725e-003    0.750    3.353e+002    1.113e+001    
13.500   12.192   6.000       1.803         1.533     1.308    0.989      6.077e-003    0.735    3.214e+002    1.045e+001    
13.500   12.167   6.000       1.800         1.580     1.333    0.989      6.394e-003    0.719    2.930e+002    9.711e+000    
13.500   12.143   6.000       1.796         1.631     1.357    0.989      6.730e-003    0.705    2.549e+002    8.776e+000    
13.500   12.117   6.000       1.792         1.682     1.383    0.989      7.047e-003    0.691    2.445e+002    8.415e+000    
13.500   12.092   6.000       1.789         1.734     1.408    0.989      7.362e-003    0.677    2.429e+002    8.268e+000    
13.500   12.066   6.000       1.785         1.788     1.434    0.988      7.662e-003    0.663    2.439e+002    7.846e+000    
13.500   12.039   6.000       1.781         1.841     1.461    0.988      7.947e-003    0.649    2.378e+002    7.217e+000    
13.500   12.012   6.000       1.777         1.896     1.488    0.988      8.224e-003    0.636    2.537e+002    6.860e+000    
13.500   11.985   6.000       1.773         1.952     1.515    0.988      8.492e-003    0.624    2.607e+002    6.812e+000    
13.500   11.957   6.000       1.769         2.008     1.543    0.987      8.744e-003    0.611    2.730e+002    7.228e+000    
13.500   11.929   6.000       1.764         2.062     1.571    0.987      8.967e-003    0.598    2.776e+002    8.237e+000    
13.500   11.901   6.000       1.760         2.120     1.599    0.987      9.202e-003    0.587    3.392e+002    1.046e+001    
13.500   11.872   6.000       1.756         2.179     1.628    0.986      9.422e-003    0.575    3.893e+002    1.199e+001    
13.500   11.843   6.000       1.752         2.238     1.657    0.986      9.634e-003    0.563    4.605e+002    1.307e+001    
13.500   11.813   6.000       1.747         2.298     1.687    0.986      9.829e-003    0.552    4.512e+002    1.276e+001    
13.500   11.783   6.000       1.743         2.359     1.717    0.985      1.002e-002    0.541    4.100e+002    1.164e+001    
13.500   11.753   6.000       1.738         2.421     1.747    0.985      1.020e-002    0.530    3.887e+002    1.113e+001    
13.500   11.722   6.000       1.734         2.484     1.778    0.985      1.036e-002    0.520    3.484e+002    1.036e+001    
13.500   11.691   6.000       1.729         2.547     1.809    0.984      1.052e-002    0.509    3.578e+002    1.045e+001    
13.500   11.659   6.000       1.724         2.611     1.841    0.984      1.066e-002    0.499    3.656e+002    1.022e+001    
13.500   11.627   6.000       1.720         2.673     1.873    0.984      1.077e-002    0.489    3.980e+002    1.035e+001    
13.500   11.595   6.000       1.715         2.739     1.905    0.983      1.090e-002    0.480    4.372e+002    1.043e+001    
13.500   11.562   6.000       1.710         2.806     1.938    0.983      1.101e-002    0.470    4.906e+002    1.090e+001    
13.500   11.529   6.000       1.705         2.873     1.971    0.982      1.112e-002    0.461    4.998e+002    1.124e+001    
13.500   11.495   6.000       1.700         2.941     2.005    0.982      1.121e-002    0.452    4.780e+002    1.076e+001    
13.500   11.462   6.000       1.695         3.010     2.038    0.981      1.130e-002    0.443    4.843e+002    1.049e+001    
13.500   11.427   6.000       1.690         3.080     2.073    0.981      1.137e-002    0.434    4.417e+002    9.939e+000    
13.500   11.392   6.000       1.685         3.151     2.108    0.980      1.144e-002    0.426    4.361e+002    9.735e+000    
13.500   11.357   6.000       1.680         3.222     2.143    0.980      1.150e-002    0.418    4.223e+002    9.561e+000    
13.500   11.322   6.000       1.675         3.294     2.178    0.979      1.155e-002    0.410    4.266e+002    9.463e+000    
13.500   11.286   6.000       1.669         3.367     2.214    0.979      1.159e-002    0.402    4.450e+002    9.674e+000    
13.500   11.250   6.000       1.664         3.441     2.250    0.978      1.163e-002    0.394    4.529e+002    1.090e+001    
13.500   11.213   6.000       1.659         3.516     2.287    0.978      1.166e-002    0.386    4.690e+002    1.433e+001    
13.500   11.176   6.000       1.653         3.591     2.324    0.977      1.168e-002    0.379    4.658e+002    2.291e+001    
13.500   11.138   6.000       1.647         3.663     2.362    0.976      1.167e-002    0.372    4.257e+002    1.961e+001    
13.500   11.100   6.000       1.642         3.740     2.400    0.976      1.168e-002    0.365    4.107e+002    1.494e+001    
13.500   11.062   6.000       1.636         3.818     2.438    0.975      1.168e-002    0.358    4.386e+002    1.473e+001    
13.500   11.023   6.000       1.630         3.897     2.477    0.975      1.167e-002    0.351    4.570e+002    1.489e+001    
13.500   10.984   6.000       1.625         3.976     2.516    0.974      1.166e-002    0.344    4.496e+002    1.463e+001    
16.000   14.472   6.000       2.537         1.210     1.528    0.990      2.218e-003    0.885    6.660e+000    1.393e+000    
16.000   14.451   6.000       2.533         1.254     1.549    0.989      2.483e-003    0.871    1.062e+001    1.267e+000    
16.000   14.429   6.000       2.529         1.300     1.571    0.989      2.743e-003    0.858    2.299e+001    1.366e+000    
16.000   14.407   6.000       2.526         1.346     1.593    0.989      3.000e-003    0.845    3.566e+001    1.497e+000    
16.000   14.384   6.000       2.522         1.392     1.616    0.989      3.253e-003    0.831    5.459e+001    1.736e+000    
16.000   14.361   6.000       2.517         1.438     1.639    0.989      3.487e-003    0.818    7.730e+001    1.997e+000    
16.000   14.338   6.000       2.513         1.486     1.662    0.989      3.732e-003    0.806    9.407e+001    2.181e+000    
16.000   14.314   6.000       2.509         1.535     1.686    0.988      3.972e-003    0.793    9.797e+001    2.226e+000    
16.000   14.290   6.000       2.505         1.585     1.710    0.988      4.208e-003    0.781    9.308e+001    2.216e+000    
16.000   14.265   6.000       2.501         1.636     1.735    0.988      4.437e-003    0.768    8.945e+001    2.134e+000    
16.000   14.240   6.000       2.496         1.687     1.760    0.988      4.662e-003    0.756    8.532e+001    2.025e+000    
16.000   14.215   6.000       2.492         1.737     1.785    0.988      4.869e-003    0.744    8.769e+001    1.995e+000    
16.000   14.189   6.000       2.487         1.790     1.811    0.987      5.083e-003    0.732    9.131e+001    1.996e+000    
16.000   14.163   6.000       2.483         1.844     1.837    0.987      5.292e-003    0.720    9.340e+001    1.988e+000    
16.000   14.137   6.000       2.478         1.899     1.863    0.987      5.498e-003    0.709    9.397e+001    2.036e+000    
16.000   14.110   6.000       2.473         1.954     1.890    0.987      5.695e-003    0.697    9.459e+001    2.170e+000    
16.000   14.082   6.000       2.469         2.011     1.918    0.987      5.885e-003    0.686    1.042e+002    2.487e+000    
16.000   14.055   6.000       2.464         2.068     1.945    0.986      6.073e-003    0.675    1.108e+002    2.883e+000    
16.000   14.027   6.000       2.459         2.126     1.973    0.986      6.254e-003    0.664    1.279e+002    3.698e+000    
16.000   13.998   6.000       2.454         2.182     2.002    0.986      6.411e-003    0.653    1.415e+002    5.389e+000    
16.000   13.970   6.000       2.449         2.241     2.030    0.985      6.582e-003    0.643    1.597e+002    6.297e+000    
16.000   13.940   6.000       2.444         2.301     2.060    0.985      6.740e-003    0.632    1.777e+002    6.139e+000    
16.000   13.911   6.000       2.439         2.362     2.089    0.985      6.899e-003    0.622    1.786e+002    5.810e+000    
16.000   13.881   6.000       2.433         2.424     2.119    0.985      7.048e-003    0.612    1.465e+002    5.180e+000    
16.000   13.850   6.000       2.428         2.487     2.150    0.984      7.188e-003    0.602    1.459e+002    5.288e+000    
16.000   13.820   6.000       2.423         2.550     2.180    0.984      7.329e-003    0.592    1.422e+002    5.439e+000    
16.000   13.788   6.000       2.417         2.615     2.212    0.984      7.456e-003    0.582    1.469e+002    5.882e+000    
16.000   13.757   6.000       2.412         2.680     2.243    0.983      7.583e-003    0.573    1.553e+002    6.606e+000    
16.000   13.725   6.000       2.406         2.742     2.275    0.983      7.688e-003    0.564    1.718e+002    7.558e+000    
16.000   13.693   6.000       2.400         2.809     2.307    0.983      7.802e-003    0.554    2.147e+002    8.630e+000    
16.000   13.660   6.000       2.395         2.876     2.340    0.982      7.907e-003    0.545    2.295e+002    8.900e+000    
16.000   13.627   6.000       2.389         2.945     2.373    0.982      8.009e-003    0.536    2.260e+002    8.633e+000    
16.000   13.593   6.000       2.383         3.014     2.407    0.981      8.101e-003    0.528    2.176e+002    8.472e+000    
16.000   13.559   6.000       2.377         3.084     2.441    0.981      8.190e-003    0.519    2.134e+002    9.278e+000    
16.000   13.525   6.000       2.371         3.154     2.475    0.981      8.275e-003    0.510    1.950e+002    1.049e+001    
16.000   13.490   6.000       2.365         3.226     2.510    0.980      8.351e-003    0.502    2.002e+002    1.430e+001    
16.000   13.455   6.000       2.359         3.298     2.545    0.980      8.423e-003    0.494    1.978e+002    3.527e+001    
16.000   13.384   6.000       2.346         3.445     2.616    0.979      8.553e-003    0.478    2.086e+002    4.032e+001    
16.000   13.348   6.000       2.340         3.519     2.652    0.978      8.611e-003    0.470    2.134e+002    1.977e+001    
16.000   13.311   6.000       2.333         3.591     2.689    0.978      8.648e-003    0.462    2.109e+002    1.419e+001    
16.000   13.274   6.000       2.327         3.667     2.726    0.977      8.695e-003    0.455    2.103e+002    1.141e+001    
16.000   13.237   6.000       2.320         3.744     2.763    0.977      8.739e-003    0.448    2.093e+002    1.017e+001    
16.000   13.199   6.000       2.314         3.822     2.801    0.976      8.775e-003    0.440    2.074e+002    1.005e+001    
16.000   13.161   6.000       2.307         3.901     2.839    0.976      8.808e-003    0.433    2.103e+002    1.009e+001    
16.000   13.122   6.000       2.300         3.980     2.878    0.975      8.834e-003    0.426    2.203e+002    1.020e+001    
19.500   17.346   6.000       3.706         1.217     2.154    0.988      1.301e-003    0.917    1.511e+000    3.858e-001    
19.500   17.325   6.000       3.701         1.261     2.175    0.988      1.457e-003    0.907    2.863e+000    3.435e-001    
19.500   17.304   6.000       3.697         1.304     2.196    0.987      1.603e-003    0.897    4.629e+000    3.483e-001    
19.500   17.282   6.000       3.692         1.350     2.218    0.987      1.757e-003    0.887    6.593e+000    3.618e-001    
19.500   17.260   6.000       3.688         1.397     2.240    0.987      1.909e-003    0.877    1.065e+001    4.137e-001    
19.500   17.237   6.000       3.683         1.445     2.263    0.987      2.060e-003    0.867    1.481e+001    4.620e-001    
19.500   17.214   6.000       3.678         1.491     2.286    0.987      2.200e-003    0.857    1.776e+001    4.978e-001    
19.500   17.191   6.000       3.673         1.540     2.309    0.987      2.348e-003    0.848    1.884e+001    5.042e-001    
19.500   17.167   6.000       3.668         1.590     2.333    0.987      2.494e-003    0.838    1.989e+001    5.152e-001    
19.500   17.143   6.000       3.663         1.641     2.357    0.986      2.638e-003    0.828    1.991e+001    5.173e-001    
19.500   17.119   6.000       3.657         1.693     2.381    0.986      2.781e-003    0.819    2.126e+001    5.446e-001    
19.500   17.094   6.000       3.652         1.742     2.406    0.986      2.912e-003    0.809    2.040e+001    5.484e-001    
19.500   17.069   6.000       3.647         1.796     2.431    0.986      3.050e-003    0.799    2.141e+001    5.818e-001    
19.500   17.043   6.000       3.641         1.850     2.457    0.986      3.186e-003    0.790    2.248e+001    5.932e-001    
19.500   17.017   6.000       3.636         1.904     2.483    0.985      3.319e-003    0.780    2.462e+001    6.019e-001    
19.500   16.991   6.000       3.630         1.960     2.509    0.985      3.451e-003    0.771    2.577e+001    6.038e-001    
19.500   16.964   6.000       3.624         2.016     2.536    0.985      3.579e-003    0.762    2.761e+001    6.137e-001    
19.500   16.937   6.000       3.619         2.071     2.563    0.985      3.697e-003    0.752    3.000e+001    6.458e-001    
19.500   16.909   6.000       3.613         2.129     2.591    0.985      3.819e-003    0.743    3.300e+001    7.082e-001    
19.500   16.881   6.000       3.607         2.187     2.619    0.984      3.940e-003    0.734    4.010e+001    8.237e-001    
19.500   16.853   6.000       3.601         2.247     2.647    0.984      4.059e-003    0.725    4.872e+001    9.694e-001    
19.500   16.824   6.000       3.594         2.307     2.676    0.984      4.174e-003    0.716    5.425e+001    1.094e+000    
19.500   16.795   6.000       3.588         2.369     2.705    0.984      4.286e-003    0.707    5.053e+001    1.136e+000    
19.500   16.766   6.000       3.582         2.430     2.734    0.983      4.397e-003    0.698    4.484e+001    1.215e+000    
19.500   16.736   6.000       3.576         2.490     2.764    0.983      4.495e-003    0.689    4.134e+001    1.438e+000    
19.500   16.706   6.000       3.569         2.554     2.794    0.983      4.599e-003    0.681    4.486e+001    1.596e+000    
19.500   16.675   6.000       3.563         2.618     2.825    0.983      4.700e-003    0.672    4.431e+001    1.522e+000    
19.500   16.644   6.000       3.556         2.683     2.856    0.982      4.798e-003    0.663    4.656e+001    1.499e+000    
19.500   16.613   6.000       3.549         2.749     2.887    0.982      4.894e-003    0.655    5.524e+001    1.631e+000    
19.500   16.581   6.000       3.542         2.816     2.919    0.982      4.985e-003    0.647    6.248e+001    1.790e+000    
19.500   16.549   6.000       3.536         2.883     2.951    0.981      5.074e-003    0.638    6.835e+001    1.955e+000    
