#
# Source: https://hallcweb.jlab.org/resdata/database/
# SLAC experiment e49b hydrogen, with Whitlow normalization 0.981. 
#Â Uncertainties shown are statistical only.
#  At least 5% systematic uncertainties are estimated, but not reflected in this data set.
#
# E      EP       Theta       Q^2           W^2       Nu       Epsilon    Gamma         x        Sigma         Uncertainty
# (Gev)  (Gev)    (degrees)   ((Gev/c)^2)   (Gev^2)   (Gev)                                      (nb/Ser*Gev)
#
4.504    3.528    18.020      1.559         1.153     0.976    0.925      3.608e-004    0.851    2.563e+000    8.615e-001    
4.504    3.520    18.020      1.555         1.173     0.984    0.925      3.839e-004    0.842    1.237e+000    7.982e-001    
4.504    3.512    18.020      1.552         1.190     0.992    0.924      4.041e-004    0.834    2.370e+000    7.847e-001    
4.504    3.504    18.020      1.548         1.210     1.000    0.924      4.269e-004    0.825    3.924e+000    7.662e-001    
4.504    3.496    18.020      1.545         1.228     1.008    0.923      4.469e-004    0.817    5.662e+000    7.939e-001    
4.504    3.488    18.020      1.541         1.248     1.016    0.923      4.695e-004    0.808    6.795e+000    8.111e-001    
4.504    3.480    18.020      1.538         1.266     1.024    0.922      4.891e-004    0.800    9.555e+000    8.430e-001    
4.504    3.472    18.020      1.534         1.284     1.032    0.921      5.086e-004    0.792    1.074e+001    8.666e-001    
4.504    3.464    18.020      1.531         1.302     1.040    0.921      5.280e-004    0.784    1.249e+001    8.776e-001    
4.504    3.456    18.020      1.527         1.320     1.048    0.920      5.473e-004    0.776    1.711e+001    9.658e-001    
4.504    3.448    18.020      1.524         1.339     1.056    0.920      5.664e-004    0.769    2.104e+001    1.047e+000    
4.504    3.440    18.020      1.520         1.357     1.064    0.919      5.853e-004    0.761    2.317e+001    1.084e+000    
4.504    3.432    18.020      1.516         1.376     1.072    0.919      6.041e-004    0.754    3.267e+001    1.277e+000    
4.504    3.424    18.020      1.513         1.395     1.080    0.918      6.228e-004    0.746    3.704e+001    1.299e+000    
4.504    3.416    18.020      1.509         1.414     1.088    0.918      6.414e-004    0.739    4.229e+001    1.388e+000    
4.504    3.408    18.020      1.506         1.433     1.096    0.917      6.598e-004    0.732    4.662e+001    1.416e+000    
4.504    3.400    18.020      1.502         1.450     1.104    0.917      6.752e-004    0.725    5.298e+001    1.514e+000    
4.504    3.392    18.020      1.499         1.469     1.112    0.916      6.933e-004    0.718    5.461e+001    1.532e+000    
4.504    3.384    18.020      1.495         1.488     1.120    0.915      7.112e-004    0.711    6.058e+001    1.641e+000    
4.504    3.376    18.020      1.492         1.506     1.128    0.915      7.262e-004    0.705    5.872e+001    1.581e+000    
4.504    3.368    18.020      1.488         1.525     1.136    0.914      7.439e-004    0.698    5.697e+001    1.579e+000    
4.504    3.360    18.020      1.485         1.543     1.144    0.914      7.585e-004    0.692    5.466e+001    1.521e+000    
4.504    3.352    18.020      1.481         1.563     1.152    0.913      7.759e-004    0.685    5.102e+001    1.462e+000    
4.504    3.344    18.020      1.478         1.580     1.160    0.912      7.903e-004    0.679    4.945e+001    1.447e+000    
4.504    3.336    18.020      1.474         1.600     1.168    0.912      8.074e-004    0.672    4.887e+001    1.457e+000    
4.504    3.328    18.020      1.470         1.618     1.176    0.911      8.215e-004    0.666    4.703e+001    1.437e+000    
4.504    3.320    18.020      1.467         1.636     1.184    0.910      8.354e-004    0.660    4.512e+001    1.361e+000    
4.504    3.312    18.020      1.463         1.654     1.192    0.910      8.492e-004    0.654    4.457e+001    1.338e+000    
4.504    3.304    18.020      1.460         1.674     1.200    0.909      8.657e-004    0.648    4.051e+001    1.278e+000    
4.504    3.296    18.020      1.456         1.693     1.208    0.909      8.793e-004    0.642    3.978e+001    1.264e+000    
4.504    3.288    18.020      1.453         1.711     1.216    0.908      8.926e-004    0.637    3.896e+001    1.265e+000    
4.504    3.280    18.020      1.449         1.729     1.224    0.907      9.059e-004    0.631    3.956e+001    1.271e+000    
4.504    3.272    18.020      1.446         1.748     1.232    0.907      9.190e-004    0.625    3.976e+001    1.253e+000    
4.504    3.264    18.020      1.442         1.766     1.240    0.906      9.319e-004    0.620    3.756e+001    1.224e+000    
4.504    3.256    18.020      1.439         1.785     1.248    0.905      9.447e-004    0.614    3.846e+001    1.194e+000    
4.504    3.248    18.020      1.435         1.804     1.256    0.905      9.574e-004    0.609    3.874e+001    1.226e+000    
4.504    3.240    18.020      1.432         1.823     1.264    0.904      9.700e-004    0.604    3.912e+001    1.235e+000    
4.504    3.232    18.020      1.428         1.841     1.272    0.903      9.824e-004    0.598    4.134e+001    1.308e+000    
4.504    3.224    18.020      1.425         1.858     1.280    0.902      9.918e-004    0.593    4.259e+001    1.303e+000    
4.504    3.216    18.020      1.421         1.877     1.288    0.902      1.004e-003    0.588    4.189e+001    1.292e+000    
4.504    3.208    18.020      1.417         1.896     1.296    0.901      1.016e-003    0.583    4.146e+001    1.286e+000    
4.504    3.200    18.020      1.414         1.915     1.304    0.900      1.028e-003    0.578    4.392e+001    1.326e+000    
4.504    3.192    18.020      1.410         1.932     1.312    0.900      1.037e-003    0.573    4.334e+001    1.343e+000    
4.504    3.184    18.020      1.407         1.952     1.320    0.899      1.048e-003    0.568    4.188e+001    1.361e+000    
4.504    3.176    18.020      1.403         1.971     1.328    0.898      1.060e-003    0.563    4.733e+001    1.427e+000    
4.504    3.168    18.020      1.400         1.988     1.336    0.897      1.068e-003    0.558    4.546e+001    1.400e+000    
4.504    3.160    18.020      1.396         2.008     1.344    0.897      1.080e-003    0.554    4.792e+001    1.465e+000    
4.504    3.152    18.020      1.393         2.025     1.352    0.896      1.088e-003    0.549    4.754e+001    1.454e+000    
4.504    3.144    18.020      1.389         2.045     1.360    0.895      1.099e-003    0.544    4.910e+001    1.500e+000    
4.504    3.136    18.020      1.386         2.062     1.368    0.894      1.107e-003    0.540    5.299e+001    1.616e+000    
4.504    3.128    18.020      1.382         2.082     1.376    0.894      1.118e-003    0.535    5.123e+001    1.601e+000    
4.504    3.120    18.020      1.379         2.100     1.384    0.893      1.125e-003    0.531    5.326e+001    1.633e+000    
4.504    3.112    18.020      1.375         2.117     1.392    0.892      1.133e-003    0.526    5.673e+001    1.639e+000    
4.504    3.104    18.020      1.372         2.137     1.400    0.891      1.143e-003    0.522    5.606e+001    1.671e+000    
4.504    3.096    18.020      1.368         2.155     1.408    0.890      1.151e-003    0.518    5.971e+001    1.770e+000    
4.504    3.088    18.020      1.364         2.173     1.416    0.890      1.158e-003    0.513    5.864e+001    1.819e+000    
4.504    3.080    18.020      1.361         2.193     1.424    0.889      1.168e-003    0.509    6.841e+001    1.901e+000    
4.504    3.072    18.020      1.357         2.211     1.432    0.888      1.175e-003    0.505    7.221e+001    2.007e+000    
4.504    3.064    18.020      1.354         2.229     1.440    0.887      1.182e-003    0.501    7.389e+001    1.976e+000    
4.504    3.056    18.020      1.350         2.247     1.448    0.886      1.189e-003    0.497    7.890e+001    2.102e+000    
4.504    3.048    18.020      1.347         2.268     1.456    0.885      1.199e-003    0.493    7.863e+001    2.124e+000    
4.504    3.040    18.020      1.343         2.286     1.464    0.885      1.206e-003    0.489    7.630e+001    2.134e+000    
4.504    3.032    18.020      1.340         2.304     1.472    0.884      1.212e-003    0.485    8.008e+001    2.184e+000    
4.504    3.024    18.020      1.336         2.323     1.480    0.883      1.219e-003    0.481    7.630e+001    2.073e+000    
4.504    3.016    18.020      1.333         2.341     1.488    0.882      1.225e-003    0.477    7.504e+001    2.026e+000    
4.504    3.008    18.020      1.329         2.359     1.496    0.881      1.231e-003    0.473    7.234e+001    1.996e+000    
4.504    3.000    18.020      1.326         2.378     1.504    0.880      1.238e-003    0.470    7.430e+001    2.094e+000    
4.504    2.992    18.020      1.322         2.396     1.512    0.879      1.244e-003    0.466    6.639e+001    1.963e+000    
4.504    2.984    18.020      1.318         2.415     1.520    0.878      1.250e-003    0.462    6.729e+001    1.949e+000    
4.504    2.976    18.020      1.315         2.434     1.528    0.878      1.256e-003    0.459    6.525e+001    1.863e+000    
4.504    2.968    18.020      1.311         2.452     1.536    0.877      1.261e-003    0.455    6.150e+001    1.800e+000    
4.504    2.960    18.020      1.308         2.471     1.544    0.876      1.267e-003    0.451    6.160e+001    1.811e+000    
4.504    2.952    18.020      1.304         2.490     1.552    0.875      1.273e-003    0.448    6.026e+001    1.830e+000    
4.504    2.944    18.020      1.301         2.509     1.560    0.874      1.278e-003    0.444    6.139e+001    1.806e+000    
4.504    2.936    18.020      1.297         2.525     1.568    0.873      1.281e-003    0.441    5.991e+001    1.758e+000    
4.504    2.928    18.020      1.294         2.544     1.576    0.872      1.287e-003    0.437    5.966e+001    1.731e+000    
4.504    2.920    18.020      1.290         2.563     1.584    0.871      1.292e-003    0.434    5.925e+001    1.751e+000    
4.504    2.912    18.020      1.287         2.582     1.592    0.870      1.297e-003    0.431    5.898e+001    1.769e+000    
4.504    2.904    18.020      1.283         2.602     1.600    0.869      1.302e-003    0.427    6.210e+001    1.853e+000    
4.504    2.896    18.020      1.280         2.618     1.608    0.868      1.305e-003    0.424    5.970e+001    1.781e+000    
4.504    2.888    18.020      1.276         2.637     1.616    0.867      1.310e-003    0.421    6.414e+001    1.795e+000    
4.504    2.880    18.020      1.273         2.657     1.624    0.866      1.314e-003    0.418    6.607e+001    1.873e+000    
4.504    2.872    18.020      1.269         2.673     1.632    0.865      1.317e-003    0.414    6.689e+001    1.882e+000    
4.504    2.864    18.020      1.265         2.693     1.640    0.864      1.321e-003    0.411    6.773e+001    2.011e+000    
4.504    2.856    18.020      1.262         2.713     1.648    0.863      1.326e-003    0.408    7.049e+001    2.021e+000    
4.504    2.848    18.020      1.258         2.729     1.656    0.862      1.328e-003    0.405    7.799e+001    2.101e+000    
4.504    2.840    18.020      1.255         2.749     1.664    0.861      1.332e-003    0.402    7.437e+001    2.044e+000    
4.504    2.832    18.020      1.251         2.769     1.672    0.860      1.337e-003    0.399    7.387e+001    2.096e+000    
4.504    2.824    18.020      1.248         2.786     1.680    0.859      1.339e-003    0.396    7.753e+001    2.207e+000    
4.504    2.816    18.020      1.244         2.806     1.688    0.858      1.343e-003    0.393    8.219e+001    2.297e+000    
4.504    2.808    18.020      1.241         2.822     1.696    0.857      1.345e-003    0.390    8.445e+001    2.291e+000    
4.504    2.800    18.020      1.237         2.843     1.704    0.856      1.349e-003    0.387    8.454e+001    2.246e+000    
4.504    2.792    18.020      1.234         2.859     1.712    0.855      1.350e-003    0.384    8.402e+001    2.256e+000    
4.504    2.784    18.020      1.230         2.880     1.720    0.854      1.354e-003    0.381    8.596e+001    2.330e+000    
4.504    2.776    18.020      1.227         2.897     1.728    0.853      1.356e-003    0.378    8.391e+001    2.316e+000    
4.504    2.768    18.020      1.223         2.917     1.736    0.852      1.359e-003    0.375    8.577e+001    2.272e+000    
4.504    2.760    18.020      1.220         2.934     1.744    0.851      1.361e-003    0.373    8.669e+001    2.227e+000    
4.504    2.752    18.020      1.216         2.952     1.752    0.849      1.362e-003    0.370    8.338e+001    2.167e+000    
4.504    2.744    18.020      1.212         2.972     1.760    0.848      1.366e-003    0.367    8.502e+001    2.222e+000    
4.504    2.736    18.020      1.209         2.989     1.768    0.847      1.367e-003    0.364    8.312e+001    2.197e+000    
4.504    2.728    18.020      1.205         3.010     1.776    0.846      1.370e-003    0.362    8.105e+001    2.125e+000    
4.504    2.720    18.020      1.202         3.028     1.784    0.845      1.372e-003    0.359    7.492e+001    1.999e+000    
4.504    2.712    18.020      1.198         3.045     1.792    0.844      1.373e-003    0.356    7.429e+001    1.947e+000    
4.504    2.704    18.020      1.195         3.063     1.800    0.843      1.374e-003    0.354    7.495e+001    2.006e+000    
4.504    2.696    18.020      1.191         3.084     1.808    0.842      1.377e-003    0.351    7.689e+001    2.024e+000    
4.504    2.688    18.020      1.188         3.101     1.816    0.840      1.378e-003    0.349    7.256e+001    1.993e+000    
4.504    2.680    18.020      1.184         3.119     1.824    0.839      1.379e-003    0.346    7.209e+001    1.935e+000    
4.504    2.672    18.020      1.181         3.140     1.832    0.838      1.382e-003    0.343    7.290e+001    1.947e+000    
4.504    2.664    18.020      1.177         3.158     1.840    0.837      1.382e-003    0.341    7.092e+001    1.913e+000    
4.504    2.656    18.020      1.174         3.176     1.848    0.836      1.383e-003    0.338    7.166e+001    2.008e+000    
4.504    2.648    18.020      1.170         3.193     1.856    0.834      1.384e-003    0.336    6.821e+001    1.907e+000    
4.504    2.640    18.020      1.166         3.211     1.864    0.833      1.384e-003    0.333    6.888e+001    1.888e+000    
4.504    2.632    18.020      1.163         3.233     1.872    0.832      1.387e-003    0.331    7.138e+001    1.929e+000    
4.504    2.624    18.020      1.159         3.251     1.880    0.831      1.388e-003    0.329    6.796e+001    1.900e+000    
4.504    2.616    18.020      1.156         3.269     1.888    0.830      1.388e-003    0.326    6.823e+001    1.943e+000    
4.504    2.608    18.020      1.152         3.287     1.896    0.828      1.389e-003    0.324    6.996e+001    1.957e+000    
4.504    2.600    18.020      1.149         3.305     1.904    0.827      1.389e-003    0.322    6.852e+001    1.902e+000    
4.504    2.592    18.020      1.145         3.323     1.912    0.826      1.389e-003    0.319    7.387e+001    1.955e+000    
4.504    2.584    18.020      1.142         3.342     1.920    0.825      1.390e-003    0.317    7.028e+001    1.929e+000    
4.504    2.576    18.020      1.138         3.360     1.928    0.823      1.390e-003    0.315    7.711e+001    2.043e+000    
4.504    2.568    18.020      1.135         3.378     1.936    0.822      1.390e-003    0.312    6.740e+001    1.911e+000    
4.504    2.560    18.020      1.131         3.397     1.944    0.821      1.391e-003    0.310    7.335e+001    1.864e+000    
4.504    2.552    18.020      1.128         3.415     1.952    0.820      1.391e-003    0.308    6.987e+001    1.810e+000    
4.504    2.544    18.020      1.124         3.434     1.960    0.818      1.391e-003    0.306    7.442e+001    1.813e+000    
4.504    2.536    18.020      1.121         3.452     1.968    0.817      1.391e-003    0.303    7.254e+001    1.755e+000    
4.504    2.528    18.020      1.117         3.471     1.976    0.816      1.391e-003    0.301    7.458e+001    1.740e+000    
4.504    2.520    18.020      1.113         3.489     1.984    0.814      1.391e-003    0.299    7.275e+001    1.650e+000    
4.504    2.512    18.020      1.110         3.508     1.992    0.813      1.391e-003    0.297    7.113e+001    1.614e+000    
4.504    2.504    18.020      1.106         3.527     2.000    0.812      1.391e-003    0.295    7.258e+001    1.655e+000    
4.504    2.496    18.020      1.103         3.546     2.008    0.810      1.391e-003    0.293    7.222e+001    1.642e+000    
4.504    2.488    18.020      1.099         3.565     2.016    0.809      1.391e-003    0.291    7.552e+001    1.646e+000    
4.504    2.480    18.020      1.096         3.583     2.024    0.808      1.391e-003    0.289    7.256e+001    1.634e+000    
4.504    2.472    18.020      1.092         3.602     2.032    0.806      1.391e-003    0.286    7.497e+001    1.707e+000    
4.504    2.464    18.020      1.089         3.621     2.040    0.805      1.391e-003    0.284    7.637e+001    1.777e+000    
4.504    2.456    18.020      1.085         3.640     2.048    0.803      1.390e-003    0.282    7.637e+001    1.805e+000    
4.504    2.448    18.020      1.082         3.660     2.056    0.802      1.390e-003    0.280    7.338e+001    1.807e+000    
4.504    2.440    18.020      1.078         3.675     2.064    0.801      1.388e-003    0.278    7.442e+001    1.861e+000    
4.504    2.432    18.020      1.075         3.694     2.072    0.799      1.388e-003    0.276    7.588e+001    1.940e+000    
4.504    2.424    18.020      1.071         3.713     2.080    0.798      1.387e-003    0.274    7.350e+001    1.986e+000    
4.504    2.416    18.020      1.068         3.733     2.088    0.796      1.387e-003    0.272    7.620e+001    2.030e+000    
4.504    2.408    18.020      1.064         3.752     2.096    0.795      1.387e-003    0.271    7.025e+001    1.903e+000    
4.504    2.400    18.020      1.060         3.767     2.104    0.794      1.385e-003    0.269    6.981e+001    1.902e+000    
4.504    2.392    18.020      1.057         3.787     2.112    0.792      1.384e-003    0.267    7.354e+001    1.976e+000    
4.504    2.384    18.020      1.053         3.806     2.120    0.791      1.384e-003    0.265    7.515e+001    2.028e+000    
4.504    2.376    18.020      1.050         3.826     2.128    0.789      1.383e-003    0.263    7.171e+001    1.911e+000    
4.504    2.368    18.020      1.046         3.842     2.136    0.788      1.381e-003    0.261    7.164e+001    1.907e+000    
4.504    2.360    18.020      1.043         3.861     2.144    0.786      1.380e-003    0.259    7.315e+001    1.970e+000    
4.504    2.352    18.020      1.039         3.881     2.152    0.785      1.380e-003    0.257    7.423e+001    1.975e+000    
4.504    2.344    18.020      1.036         3.901     2.160    0.783      1.379e-003    0.256    7.485e+001    2.021e+000    
4.504    2.336    18.020      1.032         3.916     2.168    0.782      1.377e-003    0.254    7.535e+001    2.039e+000    
4.504    2.328    18.020      1.029         3.936     2.176    0.780      1.376e-003    0.252    7.174e+001    2.075e+000    
4.504    2.320    18.020      1.025         3.956     2.184    0.779      1.376e-003    0.250    7.307e+001    2.193e+000    
4.504    2.312    18.020      1.022         3.972     2.192    0.777      1.373e-003    0.248    7.776e+001    2.460e+000    
4.504    2.304    18.020      1.018         3.992     2.200    0.776      1.373e-003    0.247    7.296e+001    2.498e+000    
