#
# Source: https://hallcweb.jlab.org/resdata/database/
# SLAC experiment e61 deuterium, with Whitlow normalization 1.033. 
# Uncertainties shown are statistical only. 
# At least 5% systematic uncertainties are estimated, but not reflected in this data set.
#
# E      EP       Theta       Q^2           W^2       Nu       Epsilon    Gamma         x        Sigma         Uncertainty
# (Gev)  (Gev)    (degrees)   ((Gev/c)^2)   (Gev^2)   (Gev)                                      (nb/Ser*Gev)
#
20.005   18.874   4.000       1.840         1.162     1.131    0.996      6.913e-003    0.867    2.036e+002    1.232e+001    
20.005   18.855   4.000       1.838         1.199     1.150    0.996      7.710e-003    0.852    2.556e+002    1.102e+001    
20.005   18.836   4.000       1.836         1.237     1.169    0.996      8.496e-003    0.837    2.969e+002    1.058e+001    
20.005   18.817   4.000       1.834         1.275     1.188    0.996      9.272e-003    0.823    3.816e+002    1.067e+001    
20.005   18.798   4.000       1.832         1.311     1.207    0.996      9.984e-003    0.809    4.866e+002    1.111e+001    
20.005   18.779   4.000       1.830         1.350     1.226    0.996      1.074e-002    0.796    5.582e+002    1.130e+001    
20.005   18.760   4.000       1.828         1.388     1.245    0.996      1.143e-002    0.783    6.392e+002    1.166e+001    
20.005   18.741   4.000       1.827         1.426     1.264    0.995      1.211e-002    0.770    7.366e+002    1.209e+001    
20.005   18.722   4.000       1.825         1.462     1.283    0.995      1.272e-002    0.758    7.928e+002    1.228e+001    
20.005   18.703   4.000       1.823         1.501     1.302    0.995      1.338e-002    0.746    8.724e+002    1.250e+001    
20.005   18.684   4.000       1.821         1.538     1.321    0.995      1.397e-002    0.735    8.772e+002    1.235e+001    
20.005   18.665   4.000       1.819         1.575     1.340    0.995      1.456e-002    0.723    9.123e+002    1.233e+001    
20.005   18.646   4.000       1.817         1.613     1.359    0.995      1.513e-002    0.713    8.972e+002    1.209e+001    
20.005   18.627   4.000       1.815         1.649     1.378    0.995      1.564e-002    0.702    9.164e+002    1.202e+001    
20.005   18.608   4.000       1.814         1.687     1.397    0.995      1.619e-002    0.692    9.050e+002    1.189e+001    
20.005   18.589   4.000       1.812         1.724     1.416    0.995      1.668e-002    0.682    9.133e+002    1.182e+001    
20.005   18.570   4.000       1.810         1.764     1.435    0.995      1.721e-002    0.672    8.665e+002    1.152e+001    
20.005   18.551   4.000       1.808         1.801     1.454    0.995      1.768e-002    0.663    8.769e+002    1.150e+001    
20.005   18.532   4.000       1.806         1.836     1.473    0.995      1.809e-002    0.653    8.991e+002    1.163e+001    
20.005   18.513   4.000       1.804         1.874     1.492    0.995      1.854e-002    0.644    8.837e+002    1.151e+001    
20.005   18.494   4.000       1.802         1.913     1.511    0.995      1.898e-002    0.636    9.092e+002    1.173e+001    
20.005   18.475   4.000       1.801         1.949     1.530    0.994      1.936e-002    0.627    9.177e+002    1.184e+001    
20.005   18.456   4.000       1.799         1.988     1.549    0.994      1.978e-002    0.619    9.588e+002    1.222e+001    
20.005   18.437   4.000       1.797         2.025     1.568    0.994      2.014e-002    0.611    9.934e+002    1.258e+001    
20.005   18.418   4.000       1.795         2.062     1.587    0.994      2.050e-002    0.603    1.055e+003    1.312e+001    
20.005   18.399   4.000       1.793         2.100     1.606    0.994      2.084e-002    0.595    1.094e+003    1.349e+001    
20.005   18.380   4.000       1.791         2.137     1.625    0.994      2.118e-002    0.587    1.116e+003    1.387e+001    
20.005   18.361   4.000       1.790         2.176     1.644    0.994      2.151e-002    0.580    1.145e+003    1.420e+001    
20.005   18.342   4.000       1.788         2.211     1.663    0.994      2.179e-002    0.573    1.220e+003    1.488e+001    
20.005   18.323   4.000       1.786         2.250     1.682    0.994      2.210e-002    0.566    1.274e+003    1.540e+001    
20.005   18.304   4.000       1.784         2.286     1.701    0.994      2.236e-002    0.559    1.305e+003    1.573e+001    
20.005   18.285   4.000       1.782         2.326     1.720    0.994      2.266e-002    0.552    1.286e+003    1.583e+001    
20.005   18.266   4.000       1.780         2.362     1.739    0.993      2.291e-002    0.546    1.341e+003    1.631e+001    
20.005   18.247   4.000       1.778         2.399     1.758    0.993      2.314e-002    0.539    1.327e+003    1.630e+001    
20.005   18.228   4.000       1.777         2.437     1.777    0.993      2.338e-002    0.533    1.332e+003    1.640e+001    
20.005   18.209   4.000       1.775         2.474     1.796    0.993      2.360e-002    0.527    1.327e+003    1.638e+001    
20.005   18.190   4.000       1.773         2.512     1.815    0.993      2.382e-002    0.521    1.329e+003    1.629e+001    
20.005   18.171   4.000       1.771         2.550     1.834    0.993      2.404e-002    0.515    1.308e+003    1.615e+001    
20.005   18.152   4.000       1.769         2.589     1.853    0.993      2.425e-002    0.509    1.329e+003    1.619e+001    
20.005   18.133   4.000       1.767         2.624     1.872    0.993      2.440e-002    0.503    1.389e+003    1.658e+001    
20.005   18.114   4.000       1.765         2.663     1.891    0.993      2.460e-002    0.497    1.371e+003    1.643e+001    
20.005   18.095   4.000       1.764         2.699     1.910    0.993      2.475e-002    0.492    1.405e+003    1.670e+001    
20.005   18.076   4.000       1.762         2.739     1.929    0.992      2.494e-002    0.487    1.426e+003    1.670e+001    
20.005   18.057   4.000       1.760         2.776     1.948    0.992      2.507e-002    0.481    1.446e+003    1.691e+001    
20.005   18.038   4.000       1.758         2.812     1.967    0.992      2.521e-002    0.476    1.516e+003    1.709e+001    
20.005   18.019   4.000       1.756         2.849     1.986    0.992      2.534e-002    0.471    1.531e+003    1.711e+001    
20.005   18.000   4.000       1.754         2.887     2.005    0.992      2.546e-002    0.466    1.542e+003    1.688e+001    
20.005   17.981   4.000       1.752         2.924     2.024    0.992      2.558e-002    0.461    1.548e+003    1.675e+001    
20.005   17.962   4.000       1.751         2.962     2.043    0.992      2.570e-002    0.457    1.565e+003    1.646e+001    
20.005   17.943   4.000       1.749         3.000     2.062    0.992      2.581e-002    0.452    1.557e+003    1.616e+001    
20.005   17.924   4.000       1.747         3.038     2.081    0.992      2.592e-002    0.447    1.546e+003    1.578e+001    
20.005   17.905   4.000       1.745         3.077     2.100    0.991      2.602e-002    0.443    1.541e+003    1.547e+001    
20.005   17.886   4.000       1.743         3.112     2.119    0.991      2.608e-002    0.438    1.562e+003    1.537e+001    
20.005   17.867   4.000       1.741         3.151     2.138    0.991      2.618e-002    0.434    1.543e+003    1.500e+001    
20.005   17.848   4.000       1.740         3.190     2.157    0.991      2.628e-002    0.430    1.554e+003    1.479e+001    
20.005   17.829   4.000       1.738         3.226     2.176    0.991      2.633e-002    0.426    1.553e+003    1.457e+001    
20.005   17.810   4.000       1.736         3.262     2.195    0.991      2.638e-002    0.421    1.543e+003    1.425e+001    
20.005   17.791   4.000       1.734         3.301     2.214    0.991      2.646e-002    0.417    1.532e+003    1.395e+001    
20.005   17.772   4.000       1.732         3.338     2.233    0.991      2.650e-002    0.413    1.536e+003    1.377e+001    
20.005   17.753   4.000       1.730         3.375     2.252    0.991      2.654e-002    0.409    1.552e+003    1.366e+001    
20.005   17.734   4.000       1.728         3.415     2.271    0.990      2.662e-002    0.406    1.590e+003    1.366e+001    
20.005   17.715   4.000       1.727         3.452     2.290    0.990      2.666e-002    0.402    1.557e+003    1.347e+001    
20.005   17.696   4.000       1.725         3.489     2.309    0.990      2.669e-002    0.398    1.557e+003    1.337e+001    
20.005   17.677   4.000       1.723         3.527     2.328    0.990      2.672e-002    0.394    1.561e+003    1.327e+001    
20.005   17.658   4.000       1.721         3.565     2.347    0.990      2.675e-002    0.391    1.575e+003    1.331e+001    
20.005   17.639   4.000       1.719         3.602     2.366    0.990      2.678e-002    0.387    1.571e+003    1.315e+001    
20.005   17.620   4.000       1.717         3.637     2.385    0.990      2.676e-002    0.384    1.598e+003    1.323e+001    
20.005   17.601   4.000       1.715         3.675     2.404    0.989      2.679e-002    0.380    1.594e+003    1.311e+001    
20.005   17.582   4.000       1.714         3.713     2.423    0.989      2.681e-002    0.377    1.583e+003    1.297e+001    
20.005   17.563   4.000       1.712         3.752     2.442    0.989      2.683e-002    0.374    1.567e+003    1.286e+001    
20.005   17.544   4.000       1.710         3.787     2.461    0.989      2.681e-002    0.370    1.592e+003    1.283e+001    
20.005   17.525   4.000       1.708         3.826     2.480    0.989      2.683e-002    0.367    1.603e+003    1.283e+001    
20.005   17.506   4.000       1.706         3.865     2.499    0.989      2.684e-002    0.364    1.591e+003    1.269e+001    
20.005   17.487   4.000       1.704         3.901     2.518    0.989      2.682e-002    0.361    1.602e+003    1.266e+001    
20.005   17.468   4.000       1.702         3.940     2.537    0.988      2.683e-002    0.358    1.586e+003    1.249e+001    
20.005   17.449   4.000       1.701         3.976     2.556    0.988      2.681e-002    0.355    1.606e+003    1.261e+001    
18.010   17.059   4.000       1.497         1.166     0.951    0.996      9.150e-003    0.839    3.237e+002    2.178e+001    
18.010   17.042   4.000       1.495         1.201     0.968    0.996      1.012e-002    0.823    4.212e+002    2.159e+001    
18.010   17.025   4.000       1.494         1.234     0.985    0.996      1.101e-002    0.808    5.502e+002    2.344e+001    
18.010   17.007   4.000       1.492         1.268     1.003    0.996      1.188e-002    0.793    6.705e+002    2.483e+001    
18.010   16.990   4.000       1.491         1.302     1.020    0.996      1.274e-002    0.779    8.156e+002    2.533e+001    
18.010   16.973   4.000       1.489         1.336     1.037    0.996      1.359e-002    0.765    9.671e+002    2.636e+001    
18.010   16.956   4.000       1.488         1.371     1.054    0.996      1.443e-002    0.752    1.202e+003    2.831e+001    
18.010   16.939   4.000       1.486         1.404     1.071    0.996      1.518e-002    0.740    1.318e+003    2.940e+001    
18.010   16.921   4.000       1.485         1.438     1.089    0.996      1.591e-002    0.727    1.526e+003    3.094e+001    
18.010   16.904   4.000       1.483         1.471     1.106    0.996      1.663e-002    0.715    1.694e+003    3.136e+001    
18.010   16.887   4.000       1.482         1.506     1.123    0.996      1.734e-002    0.703    1.680e+003    3.049e+001    
18.010   16.870   4.000       1.480         1.540     1.140    0.995      1.804e-002    0.692    1.741e+003    3.026e+001    
18.010   16.853   4.000       1.479         1.573     1.157    0.995      1.866e-002    0.681    1.810e+003    3.023e+001    
18.010   16.835   4.000       1.477         1.608     1.175    0.995      1.931e-002    0.670    1.738e+003    2.956e+001    
18.010   16.818   4.000       1.476         1.641     1.192    0.995      1.991e-002    0.660    1.748e+003    2.966e+001    
18.010   16.801   4.000       1.474         1.674     1.209    0.995      2.048e-002    0.650    1.700e+003    2.960e+001    
18.010   16.784   4.000       1.473         1.708     1.226    0.995      2.105e-002    0.640    1.659e+003    2.906e+001    
18.010   16.767   4.000       1.471         1.742     1.243    0.995      2.160e-002    0.631    1.642e+003    2.874e+001    
18.010   16.749   4.000       1.470         1.777     1.261    0.995      2.213e-002    0.621    1.602e+003    2.835e+001    
18.010   16.732   4.000       1.468         1.809     1.278    0.995      2.259e-002    0.612    1.569e+003    2.813e+001    
18.010   16.715   4.000       1.467         1.844     1.295    0.995      2.311e-002    0.603    1.613e+003    2.873e+001    
18.010   16.698   4.000       1.465         1.877     1.312    0.995      2.355e-002    0.595    1.570e+003    2.873e+001    
18.010   16.681   4.000       1.464         1.910     1.329    0.995      2.398e-002    0.587    1.681e+003    2.993e+001    
18.010   16.663   4.000       1.462         1.946     1.347    0.995      2.444e-002    0.578    1.609e+003    2.995e+001    
18.010   16.646   4.000       1.461         1.980     1.364    0.994      2.485e-002    0.571    1.679e+003    3.022e+001    
18.010   16.629   4.000       1.459         2.014     1.381    0.994      2.525e-002    0.563    1.692e+003    3.007e+001    
18.010   16.612   4.000       1.458         2.045     1.398    0.994      2.558e-002    0.556    1.791e+003    3.053e+001    
18.010   16.595   4.000       1.456         2.079     1.415    0.994      2.596e-002    0.548    1.836e+003    3.067e+001    
18.010   16.577   4.000       1.455         2.114     1.433    0.994      2.631e-002    0.541    1.904e+003    3.139e+001    
18.010   16.560   4.000       1.453         2.146     1.450    0.994      2.661e-002    0.534    1.989e+003    3.248e+001    
18.010   16.543   4.000       1.452         2.182     1.467    0.994      2.696e-002    0.527    2.101e+003    3.345e+001    
18.010   16.526   4.000       1.450         2.214     1.484    0.994      2.724e-002    0.521    2.118e+003    3.373e+001    
18.010   16.509   4.000       1.449         2.250     1.501    0.994      2.757e-002    0.514    2.194e+003    3.379e+001    
18.010   16.491   4.000       1.447         2.283     1.519    0.994      2.782e-002    0.508    2.203e+003    3.349e+001    
18.010   16.474   4.000       1.445         2.316     1.536    0.994      2.807e-002    0.501    2.287e+003    3.370e+001    
18.010   16.457   4.000       1.444         2.350     1.553    0.994      2.832e-002    0.495    2.250e+003    3.358e+001    
18.010   16.440   4.000       1.442         2.384     1.570    0.993      2.857e-002    0.490    2.241e+003    3.379e+001    
18.010   16.423   4.000       1.441         2.418     1.587    0.993      2.880e-002    0.484    2.275e+003    3.431e+001    
18.010   16.405   4.000       1.439         2.452     1.605    0.993      2.901e-002    0.478    2.224e+003    3.435e+001    
18.010   16.388   4.000       1.438         2.487     1.622    0.993      2.923e-002    0.472    2.220e+003    3.471e+001    
18.010   16.371   4.000       1.436         2.519     1.639    0.993      2.939e-002    0.467    2.206e+003    3.413e+001    
18.010   16.354   4.000       1.435         2.554     1.656    0.993      2.959e-002    0.462    2.205e+003    3.368e+001    
18.010   16.337   4.000       1.433         2.586     1.673    0.993      2.974e-002    0.457    2.239e+003    3.341e+001    
18.010   16.319   4.000       1.432         2.621     1.691    0.993      2.991e-002    0.451    2.290e+003    3.341e+001    
18.010   16.302   4.000       1.430         2.654     1.708    0.993      3.005e-002    0.446    2.376e+003    3.394e+001    
18.010   16.285   4.000       1.429         2.690     1.725    0.993      3.023e-002    0.441    2.331e+003    3.370e+001    
18.010   16.268   4.000       1.427         2.722     1.742    0.992      3.036e-002    0.437    2.359e+003    3.404e+001    
18.010   16.251   4.000       1.426         2.756     1.759    0.992      3.048e-002    0.432    2.408e+003    3.452e+001    
18.010   16.233   4.000       1.424         2.789     1.777    0.992      3.057e-002    0.427    2.453e+003    3.475e+001    
18.010   16.216   4.000       1.423         2.822     1.794    0.992      3.068e-002    0.423    2.478e+003    3.493e+001    
18.010   16.199   4.000       1.421         2.856     1.811    0.992      3.079e-002    0.418    2.486e+003    3.521e+001    
18.010   16.182   4.000       1.420         2.890     1.828    0.992      3.089e-002    0.414    2.466e+003    3.549e+001    
18.010   16.164   4.000       1.418         2.924     1.846    0.992      3.096e-002    0.409    2.499e+003    3.602e+001    
18.010   16.147   4.000       1.417         2.958     1.863    0.992      3.106e-002    0.405    2.423e+003    3.587e+001    
18.010   16.130   4.000       1.415         2.993     1.880    0.992      3.115e-002    0.401    2.518e+003    3.691e+001    
18.010   16.113   4.000       1.414         3.028     1.897    0.991      3.123e-002    0.397    2.463e+003    3.636e+001    
18.010   16.096   4.000       1.412         3.059     1.914    0.991      3.126e-002    0.393    2.453e+003    3.617e+001    
18.010   16.078   4.000       1.411         3.094     1.932    0.991      3.132e-002    0.389    2.488e+003    3.635e+001    
18.010   16.061   4.000       1.409         3.126     1.949    0.991      3.135e-002    0.385    2.448e+003    3.604e+001    
18.010   16.044   4.000       1.408         3.161     1.966    0.991      3.142e-002    0.382    2.447e+003    3.624e+001    
18.010   16.027   4.000       1.406         3.193     1.983    0.991      3.144e-002    0.378    2.419e+003    3.589e+001    
18.010   16.010   4.000       1.405         3.229     2.000    0.991      3.151e-002    0.374    2.350e+003    3.545e+001    
18.010   15.992   4.000       1.403         3.262     2.018    0.991      3.150e-002    0.371    2.416e+003    3.591e+001    
18.010   15.975   4.000       1.402         3.298     2.035    0.990      3.156e-002    0.367    2.414e+003    3.571e+001    
18.010   15.958   4.000       1.400         3.331     2.052    0.990      3.157e-002    0.364    2.411e+003    3.575e+001    
18.010   15.941   4.000       1.399         3.364     2.069    0.990      3.158e-002    0.360    2.463e+003    3.639e+001    
18.010   15.924   4.000       1.397         3.397     2.086    0.990      3.158e-002    0.357    2.437e+003    3.662e+001    
18.010   15.906   4.000       1.396         3.430     2.104    0.990      3.156e-002    0.353    2.379e+003    3.691e+001    
18.010   15.889   4.000       1.394         3.467     2.121    0.990      3.161e-002    0.350    2.348e+003    3.720e+001    
18.010   15.872   4.000       1.393         3.501     2.138    0.990      3.161e-002    0.347    2.414e+003    3.831e+001    
18.010   15.855   4.000       1.391         3.534     2.155    0.990      3.161e-002    0.344    2.464e+003    3.863e+001    
18.010   15.838   4.000       1.390         3.568     2.172    0.989      3.161e-002    0.341    2.430e+003    3.718e+001    
18.010   15.820   4.000       1.388         3.602     2.190    0.989      3.158e-002    0.338    2.410e+003    3.586e+001    
18.010   15.803   4.000       1.387         3.633     2.207    0.989      3.153e-002    0.335    2.424e+003    3.490e+001    
18.010   15.786   4.000       1.385         3.667     2.224    0.989      3.152e-002    0.332    2.439e+003    3.408e+001    
18.010   15.769   4.000       1.384         3.702     2.241    0.989      3.151e-002    0.329    2.389e+003    3.346e+001    
18.010   15.752   4.000       1.382         3.736     2.258    0.989      3.150e-002    0.326    2.386e+003    3.341e+001    
18.010   15.734   4.000       1.381         3.767     2.276    0.989      3.142e-002    0.323    2.318e+003    3.293e+001    
