#
# Source: https://hallcweb.jlab.org/resdata/database/
# SLAC experiment e61 hydrogen, with Whitlow normalization 1.011. 
# Uncertainties shown are statistical only. 
# At least 5% systematic uncertainties are estimated, but not reflected in this data set.
#
# E      EP       Theta       Q^2           W^2       Nu       Epsilon    Gamma         x        Sigma         Uncertainty
# (Gev)  (Gev)    (degrees)   ((Gev/c)^2)   (Gev^2)   (Gev)                                      (nb/Ser*Gev)
#
20.005   18.865   4.000       1.839         1.182     1.140    0.996      7.342e-003    0.859    2.556e+001    5.662e+000    
20.005   18.836   4.000       1.836         1.237     1.169    0.996      8.496e-003    0.837    7.420e+001    8.060e+000    
20.005   18.817   4.000       1.834         1.275     1.188    0.996      9.272e-003    0.823    1.202e+002    8.528e+000    
20.005   18.798   4.000       1.832         1.311     1.207    0.996      9.984e-003    0.809    1.844e+002    9.288e+000    
20.005   18.779   4.000       1.830         1.350     1.226    0.996      1.074e-002    0.796    2.604e+002    1.017e+001    
20.005   18.760   4.000       1.828         1.388     1.245    0.996      1.143e-002    0.783    3.917e+002    1.156e+001    
20.005   18.741   4.000       1.827         1.426     1.264    0.995      1.211e-002    0.770    5.196e+002    1.280e+001    
20.005   18.722   4.000       1.825         1.462     1.283    0.995      1.272e-002    0.758    6.249e+002    1.363e+001    
20.005   18.703   4.000       1.823         1.501     1.302    0.995      1.338e-002    0.746    6.957e+002    1.395e+001    
20.005   18.684   4.000       1.821         1.538     1.321    0.995      1.397e-002    0.735    7.179e+002    1.386e+001    
20.005   18.665   4.000       1.819         1.575     1.340    0.995      1.456e-002    0.723    6.536e+002    1.306e+001    
20.005   18.646   4.000       1.817         1.613     1.359    0.995      1.513e-002    0.713    5.879e+002    1.225e+001    
20.005   18.627   4.000       1.815         1.649     1.378    0.995      1.564e-002    0.702    5.747e+002    1.202e+001    
20.005   18.608   4.000       1.814         1.687     1.397    0.995      1.619e-002    0.692    5.504e+002    1.171e+001    
20.005   18.589   4.000       1.812         1.724     1.416    0.995      1.668e-002    0.682    5.280e+002    1.145e+001    
20.005   18.570   4.000       1.810         1.764     1.435    0.995      1.721e-002    0.672    5.346e+002    1.147e+001    
20.005   18.551   4.000       1.808         1.801     1.454    0.995      1.768e-002    0.663    5.262e+002    1.136e+001    
20.005   18.532   4.000       1.806         1.839     1.473    0.995      1.814e-002    0.653    5.270e+002    1.139e+001    
20.005   18.513   4.000       1.804         1.874     1.492    0.995      1.854e-002    0.644    5.113e+002    1.121e+001    
20.005   18.494   4.000       1.802         1.913     1.511    0.995      1.898e-002    0.636    5.425e+002    1.153e+001    
20.005   18.475   4.000       1.801         1.949     1.530    0.994      1.936e-002    0.627    5.346e+002    1.148e+001    
20.005   18.456   4.000       1.799         1.988     1.549    0.994      1.978e-002    0.619    5.588e+002    1.173e+001    
20.005   18.437   4.000       1.797         2.025     1.568    0.994      2.014e-002    0.611    5.747e+002    1.193e+001    
20.005   18.418   4.000       1.795         2.062     1.587    0.994      2.050e-002    0.603    6.143e+002    1.237e+001    
20.005   18.399   4.000       1.793         2.100     1.606    0.994      2.084e-002    0.595    6.471e+002    1.271e+001    
20.005   18.380   4.000       1.791         2.137     1.625    0.994      2.118e-002    0.587    6.875e+002    1.317e+001    
20.005   18.361   4.000       1.790         2.176     1.644    0.994      2.151e-002    0.580    8.109e+002    1.421e+001    
20.005   18.342   4.000       1.788         2.214     1.663    0.994      2.183e-002    0.573    8.770e+002    1.480e+001    
20.005   18.323   4.000       1.786         2.250     1.682    0.994      2.210e-002    0.566    9.853e+002    1.558e+001    
20.005   18.304   4.000       1.784         2.289     1.701    0.994      2.241e-002    0.559    1.025e+003    1.574e+001    
20.005   18.285   4.000       1.782         2.326     1.720    0.994      2.266e-002    0.552    9.826e+002    1.527e+001    
20.005   18.266   4.000       1.780         2.362     1.739    0.993      2.291e-002    0.546    9.318e+002    1.474e+001    
20.005   18.247   4.000       1.778         2.399     1.758    0.993      2.314e-002    0.539    8.932e+002    1.431e+001    
20.005   18.228   4.000       1.777         2.437     1.777    0.993      2.338e-002    0.533    8.448e+002    1.384e+001    
20.005   18.209   4.000       1.775         2.474     1.796    0.993      2.360e-002    0.527    7.965e+002    1.336e+001    
20.005   18.190   4.000       1.773         2.512     1.815    0.993      2.382e-002    0.521    7.585e+002    1.308e+001    
20.005   18.171   4.000       1.771         2.550     1.834    0.993      2.404e-002    0.515    7.650e+002    1.311e+001    
20.005   18.152   4.000       1.769         2.589     1.853    0.993      2.425e-002    0.509    7.812e+002    1.324e+001    
20.005   18.133   4.000       1.767         2.624     1.872    0.993      2.440e-002    0.503    7.868e+002    1.334e+001    
20.005   18.114   4.000       1.765         2.663     1.891    0.993      2.460e-002    0.497    7.914e+002    1.345e+001    
20.005   18.095   4.000       1.764         2.699     1.910    0.993      2.475e-002    0.492    8.309e+002    1.383e+001    
20.005   18.076   4.000       1.762         2.739     1.929    0.992      2.494e-002    0.487    8.962e+002    1.438e+001    
20.005   18.057   4.000       1.760         2.776     1.948    0.992      2.507e-002    0.481    9.916e+002    1.519e+001    
20.005   18.038   4.000       1.758         2.812     1.967    0.992      2.521e-002    0.476    1.019e+003    1.536e+001    
20.005   18.019   4.000       1.756         2.853     1.986    0.992      2.538e-002    0.471    1.073e+003    1.576e+001    
20.005   18.000   4.000       1.754         2.890     2.005    0.992      2.550e-002    0.466    1.087e+003    1.586e+001    
20.005   17.981   4.000       1.752         2.928     2.024    0.992      2.562e-002    0.461    1.140e+003    1.617e+001    
20.005   17.962   4.000       1.751         2.965     2.043    0.992      2.574e-002    0.457    1.115e+003    1.589e+001    
20.005   17.943   4.000       1.749         3.000     2.062    0.992      2.581e-002    0.452    1.093e+003    1.564e+001    
20.005   17.924   4.000       1.747         3.038     2.081    0.992      2.592e-002    0.447    1.063e+003    1.532e+001    
20.005   17.905   4.000       1.745         3.077     2.100    0.991      2.602e-002    0.443    1.005e+003    1.482e+001    
20.005   17.886   4.000       1.743         3.115     2.119    0.991      2.612e-002    0.438    1.007e+003    1.474e+001    
20.005   17.867   4.000       1.741         3.151     2.138    0.991      2.618e-002    0.434    9.556e+002    1.431e+001    
20.005   17.847   4.000       1.739         3.190     2.158    0.991      2.626e-002    0.430    9.275e+002    1.407e+001    
20.005   17.828   4.000       1.738         3.226     2.177    0.991      2.631e-002    0.425    9.160e+002    1.399e+001    
20.005   17.809   4.000       1.736         3.265     2.196    0.991      2.640e-002    0.421    9.192e+002    1.401e+001    
20.005   17.790   4.000       1.734         3.301     2.215    0.991      2.644e-002    0.417    9.408e+002    1.418e+001    
20.005   17.771   4.000       1.732         3.338     2.234    0.991      2.648e-002    0.413    9.226e+002    1.404e+001    
20.005   17.752   4.000       1.730         3.378     2.253    0.990      2.656e-002    0.409    9.548e+002    1.430e+001    
20.005   17.733   4.000       1.728         3.415     2.272    0.990      2.660e-002    0.405    9.520e+002    1.422e+001    
20.005   17.714   4.000       1.726         3.452     2.291    0.990      2.664e-002    0.402    9.159e+002    1.400e+001    
20.005   17.695   4.000       1.725         3.489     2.310    0.990      2.667e-002    0.398    9.595e+002    1.424e+001    
20.005   17.676   4.000       1.723         3.527     2.329    0.990      2.670e-002    0.394    9.446e+002    1.416e+001    
20.005   17.657   4.000       1.721         3.565     2.348    0.990      2.673e-002    0.391    9.733e+002    1.438e+001    
20.005   17.638   4.000       1.719         3.602     2.367    0.990      2.676e-002    0.387    9.802e+002    1.438e+001    
20.005   17.619   4.000       1.717         3.640     2.386    0.990      2.678e-002    0.384    9.637e+002    1.428e+001    
20.005   17.600   4.000       1.715         3.679     2.405    0.989      2.681e-002    0.380    9.789e+002    1.435e+001    
20.005   17.581   4.000       1.713         3.713     2.424    0.989      2.679e-002    0.377    9.475e+002    1.415e+001    
20.005   17.562   4.000       1.712         3.752     2.443    0.989      2.681e-002    0.373    9.975e+002    1.444e+001    
20.005   17.543   4.000       1.710         3.791     2.462    0.989      2.683e-002    0.370    9.693e+002    1.424e+001    
20.005   17.524   4.000       1.708         3.826     2.481    0.989      2.681e-002    0.367    9.549e+002    1.415e+001    
20.005   17.505   4.000       1.706         3.865     2.500    0.989      2.682e-002    0.364    9.801e+002    1.432e+001    
20.005   17.486   4.000       1.704         3.901     2.519    0.989      2.680e-002    0.361    9.452e+002    1.403e+001    
20.005   17.467   4.000       1.702         3.940     2.538    0.988      2.681e-002    0.357    9.442e+002    1.399e+001    
20.005   17.448   4.000       1.701         3.976     2.557    0.988      2.679e-002    0.354    9.579e+002    1.408e+001    
18.010   17.050   4.000       1.496         1.184     0.960    0.996      9.635e-003    0.830    4.110e+001    1.418e+001    
18.010   17.025   4.000       1.494         1.234     0.985    0.996      1.101e-002    0.808    1.408e+002    2.049e+001    
18.010   17.007   4.000       1.492         1.268     1.003    0.996      1.188e-002    0.793    2.306e+002    2.135e+001    
18.010   16.990   4.000       1.491         1.302     1.020    0.996      1.274e-002    0.779    3.163e+002    2.246e+001    
18.010   16.973   4.000       1.489         1.336     1.037    0.996      1.359e-002    0.765    4.443e+002    2.448e+001    
18.010   16.956   4.000       1.488         1.371     1.054    0.996      1.443e-002    0.752    6.259e+002    2.714e+001    
18.010   16.939   4.000       1.486         1.404     1.071    0.996      1.518e-002    0.740    8.687e+002    3.051e+001    
18.010   16.921   4.000       1.485         1.438     1.089    0.996      1.591e-002    0.727    1.133e+003    3.360e+001    
18.010   16.904   4.000       1.483         1.471     1.106    0.996      1.663e-002    0.715    1.354e+003    3.545e+001    
18.010   16.887   4.000       1.482         1.506     1.123    0.996      1.734e-002    0.703    1.378e+003    3.516e+001    
18.010   16.870   4.000       1.480         1.540     1.140    0.995      1.804e-002    0.692    1.327e+003    3.398e+001    
18.010   16.853   4.000       1.479         1.573     1.157    0.995      1.866e-002    0.681    1.301e+003    3.289e+001    
18.010   16.835   4.000       1.477         1.608     1.175    0.995      1.931e-002    0.670    1.190e+003    3.117e+001    
18.010   16.818   4.000       1.476         1.641     1.192    0.995      1.991e-002    0.660    1.075e+003    2.938e+001    
18.010   16.801   4.000       1.474         1.674     1.209    0.995      2.048e-002    0.650    1.037e+003    2.871e+001    
18.010   16.784   4.000       1.473         1.708     1.226    0.995      2.105e-002    0.640    9.377e+002    2.730e+001    
18.010   16.766   4.000       1.471         1.742     1.244    0.995      2.159e-002    0.630    9.071e+002    2.682e+001    
18.010   16.749   4.000       1.470         1.777     1.261    0.995      2.213e-002    0.621    8.689e+002    2.635e+001    
18.010   16.732   4.000       1.468         1.809     1.278    0.995      2.259e-002    0.612    8.906e+002    2.661e+001    
18.010   16.715   4.000       1.467         1.844     1.295    0.995      2.311e-002    0.603    9.213e+002    2.695e+001    
18.010   16.698   4.000       1.465         1.877     1.312    0.995      2.355e-002    0.595    9.519e+002    2.736e+001    
18.010   16.680   4.000       1.464         1.910     1.330    0.995      2.396e-002    0.586    9.146e+002    2.683e+001    
18.010   16.663   4.000       1.462         1.946     1.347    0.995      2.444e-002    0.578    9.571e+002    2.754e+001    
18.010   16.646   4.000       1.461         1.980     1.364    0.994      2.485e-002    0.571    9.735e+002    2.760e+001    
18.010   16.629   4.000       1.459         2.014     1.381    0.994      2.525e-002    0.563    1.048e+003    2.879e+001    
18.010   16.612   4.000       1.458         2.045     1.398    0.994      2.558e-002    0.556    9.839e+002    2.819e+001    
18.010   16.594   4.000       1.456         2.079     1.416    0.994      2.594e-002    0.548    1.155e+003    3.020e+001    
18.010   16.577   4.000       1.455         2.114     1.433    0.994      2.631e-002    0.541    1.137e+003    3.026e+001    
18.010   16.560   4.000       1.453         2.146     1.450    0.994      2.661e-002    0.534    1.246e+003    3.166e+001    
18.010   16.543   4.000       1.452         2.182     1.467    0.994      2.696e-002    0.527    1.384e+003    3.332e+001    
18.010   16.526   4.000       1.450         2.214     1.484    0.994      2.724e-002    0.521    1.545e+003    3.513e+001    
18.010   16.508   4.000       1.448         2.250     1.502    0.994      2.755e-002    0.514    1.671e+003    3.624e+001    
18.010   16.491   4.000       1.447         2.283     1.519    0.994      2.782e-002    0.508    1.710e+003    3.649e+001    
18.010   16.474   4.000       1.445         2.316     1.536    0.994      2.807e-002    0.501    1.719e+003    3.619e+001    
18.010   16.457   4.000       1.444         2.350     1.553    0.994      2.832e-002    0.495    1.581e+003    3.448e+001    
18.010   16.440   4.000       1.442         2.384     1.570    0.993      2.857e-002    0.490    1.475e+003    3.307e+001    
18.010   16.422   4.000       1.441         2.418     1.588    0.993      2.878e-002    0.484    1.449e+003    3.245e+001    
18.010   16.405   4.000       1.439         2.452     1.605    0.993      2.901e-002    0.478    1.317e+003    3.099e+001    
18.010   16.388   4.000       1.438         2.487     1.622    0.993      2.923e-002    0.472    1.271e+003    3.041e+001    
18.010   16.371   4.000       1.436         2.519     1.639    0.993      2.939e-002    0.467    1.275e+003    3.038e+001    
18.010   16.354   4.000       1.435         2.554     1.656    0.993      2.959e-002    0.462    1.249e+003    3.014e+001    
18.010   16.336   4.000       1.433         2.586     1.674    0.993      2.972e-002    0.456    1.249e+003    3.014e+001    
18.010   16.319   4.000       1.432         2.621     1.691    0.993      2.991e-002    0.451    1.277e+003    3.054e+001    
18.010   16.302   4.000       1.430         2.654     1.708    0.993      3.005e-002    0.446    1.377e+003    3.175e+001    
18.010   16.285   4.000       1.429         2.690     1.725    0.993      3.023e-002    0.441    1.403e+003    3.209e+001    
18.010   16.268   4.000       1.427         2.722     1.742    0.992      3.036e-002    0.437    1.485e+003    3.314e+001    
18.010   16.250   4.000       1.426         2.756     1.760    0.992      3.045e-002    0.432    1.585e+003    3.435e+001    
18.010   16.233   4.000       1.424         2.789     1.777    0.992      3.057e-002    0.427    1.576e+003    3.419e+001    
18.010   16.216   4.000       1.423         2.822     1.794    0.992      3.068e-002    0.423    1.690e+003    3.546e+001    
18.010   16.199   4.000       1.421         2.856     1.811    0.992      3.079e-002    0.418    1.829e+003    3.679e+001    
18.010   16.182   4.000       1.420         2.890     1.828    0.992      3.089e-002    0.414    1.797e+003    3.643e+001    
18.010   16.164   4.000       1.418         2.924     1.846    0.992      3.096e-002    0.409    1.829e+003    3.656e+001    
18.010   16.147   4.000       1.417         2.958     1.863    0.992      3.106e-002    0.405    1.694e+003    3.513e+001    
18.010   16.130   4.000       1.415         2.993     1.880    0.992      3.115e-002    0.401    1.745e+003    3.540e+001    
18.010   16.113   4.000       1.414         3.028     1.897    0.991      3.123e-002    0.397    1.596e+003    3.377e+001    
18.010   16.096   4.000       1.412         3.059     1.914    0.991      3.126e-002    0.393    1.585e+003    3.339e+001    
18.010   16.078   4.000       1.411         3.094     1.932    0.991      3.132e-002    0.389    1.494e+003    3.235e+001    
18.010   16.061   4.000       1.409         3.129     1.949    0.991      3.139e-002    0.385    1.449e+003    3.186e+001    
18.010   16.044   4.000       1.408         3.161     1.966    0.991      3.142e-002    0.382    1.405e+003    3.135e+001    
18.010   16.027   4.000       1.406         3.197     1.983    0.991      3.149e-002    0.378    1.414e+003    3.124e+001    
18.010   16.009   4.000       1.405         3.229     2.001    0.991      3.148e-002    0.374    1.415e+003    3.138e+001    
18.010   15.992   4.000       1.403         3.262     2.018    0.991      3.150e-002    0.371    1.414e+003    3.143e+001    
18.010   15.975   4.000       1.402         3.298     2.035    0.990      3.156e-002    0.367    1.410e+003    3.114e+001    
18.010   15.958   4.000       1.400         3.331     2.052    0.990      3.157e-002    0.364    1.398e+003    3.119e+001    
18.010   15.941   4.000       1.399         3.364     2.069    0.990      3.158e-002    0.360    1.397e+003    3.114e+001    
18.010   15.923   4.000       1.397         3.397     2.087    0.990      3.156e-002    0.357    1.426e+003    3.137e+001    
18.010   15.906   4.000       1.396         3.434     2.104    0.990      3.161e-002    0.353    1.426e+003    3.156e+001    
18.010   15.889   4.000       1.394         3.467     2.121    0.990      3.161e-002    0.350    1.442e+003    3.152e+001    
18.010   15.872   4.000       1.393         3.501     2.138    0.990      3.161e-002    0.347    1.479e+003    3.199e+001    
18.010   15.855   4.000       1.391         3.534     2.155    0.990      3.161e-002    0.344    1.408e+003    3.126e+001    
18.010   15.837   4.000       1.390         3.568     2.173    0.989      3.158e-002    0.341    1.384e+003    3.116e+001    
18.010   15.820   4.000       1.388         3.602     2.190    0.989      3.158e-002    0.338    1.443e+003    3.161e+001    
18.010   15.803   4.000       1.387         3.633     2.207    0.989      3.153e-002    0.335    1.446e+003    3.159e+001    
18.010   15.786   4.000       1.385         3.667     2.224    0.989      3.152e-002    0.332    1.509e+003    3.214e+001    
18.010   15.769   4.000       1.384         3.702     2.241    0.989      3.151e-002    0.329    1.462e+003    3.175e+001    
18.010   15.751   4.000       1.382         3.736     2.259    0.989      3.148e-002    0.326    1.424e+003    3.133e+001    
18.010   15.734   4.000       1.381         3.771     2.276    0.989      3.146e-002    0.323    1.440e+003    3.137e+001    
18.010   15.717   4.000       1.379         3.803     2.293    0.988      3.141e-002    0.320    1.469e+003    3.172e+001    
18.010   15.700   4.000       1.378         3.838     2.310    0.988      3.139e-002    0.318    1.380e+003    3.066e+001    
