#
# Source: https://hallcweb.jlab.org/resdata/database/
# SLAC experiment e49b deuterium, with Whitlow normalization 0.981. 
# Uncertainties shown are statistical only. 
# At least 5% systematic uncertainties are estimated, but not reflected in this data set.
#
# E      EP       Theta       Q^2           W^2       Nu       Epsilon    Gamma         x        Sigma         Uncertainty
# (Gev)  (Gev)    (degrees)   ((Gev/c)^2)   (Gev^2)   (Gev)                                      (nb/Ser*Gev)
#
4.504    3.528    18.020      1.559         1.153     0.976    0.925      3.608e-004    0.851    1.705e+001    1.524e+000    
4.504    3.520    18.020      1.555         1.173     0.984    0.925      3.839e-004    0.842    1.736e+001    1.414e+000    
4.504    3.512    18.020      1.552         1.190     0.992    0.924      4.041e-004    0.834    1.823e+001    1.305e+000    
4.504    3.504    18.020      1.548         1.210     1.000    0.924      4.269e-004    0.825    1.922e+001    1.227e+000    
4.504    3.496    18.020      1.545         1.228     1.008    0.923      4.469e-004    0.817    2.251e+001    1.227e+000    
4.504    3.488    18.020      1.541         1.248     1.016    0.923      4.695e-004    0.808    2.705e+001    1.259e+000    
4.504    3.480    18.020      1.538         1.266     1.024    0.922      4.891e-004    0.800    2.647e+001    1.184e+000    
4.504    3.472    18.020      1.534         1.284     1.032    0.921      5.086e-004    0.792    3.135e+001    1.209e+000    
4.504    3.464    18.020      1.531         1.302     1.040    0.921      5.280e-004    0.784    3.440e+001    1.187e+000    
4.504    3.456    18.020      1.527         1.320     1.048    0.920      5.473e-004    0.776    3.640e+001    1.179e+000    
4.504    3.448    18.020      1.524         1.339     1.056    0.920      5.664e-004    0.769    4.067e+001    1.216e+000    
4.504    3.440    18.020      1.520         1.357     1.064    0.919      5.853e-004    0.761    4.804e+001    1.260e+000    
4.504    3.432    18.020      1.516         1.376     1.072    0.919      6.041e-004    0.754    5.179e+001    1.320e+000    
4.504    3.424    18.020      1.513         1.395     1.080    0.918      6.228e-004    0.746    5.394e+001    1.274e+000    
4.504    3.416    18.020      1.509         1.414     1.088    0.918      6.414e-004    0.739    5.643e+001    1.297e+000    
4.504    3.408    18.020      1.506         1.433     1.096    0.917      6.598e-004    0.732    6.232e+001    1.300e+000    
4.504    3.400    18.020      1.502         1.450     1.104    0.917      6.752e-004    0.725    6.366e+001    1.317e+000    
4.504    3.392    18.020      1.499         1.469     1.112    0.916      6.933e-004    0.718    6.801e+001    1.342e+000    
4.504    3.384    18.020      1.495         1.488     1.120    0.915      7.112e-004    0.711    6.976e+001    1.385e+000    
4.504    3.376    18.020      1.492         1.506     1.128    0.915      7.262e-004    0.705    7.479e+001    1.394e+000    
4.504    3.368    18.020      1.488         1.525     1.136    0.914      7.439e-004    0.698    7.184e+001    1.390e+000    
4.504    3.360    18.020      1.485         1.543     1.144    0.914      7.585e-004    0.692    7.489e+001    1.390e+000    
4.504    3.352    18.020      1.481         1.563     1.152    0.913      7.759e-004    0.685    7.208e+001    1.357e+000    
4.504    3.344    18.020      1.478         1.580     1.160    0.912      7.903e-004    0.679    7.452e+001    1.383e+000    
4.504    3.336    18.020      1.474         1.600     1.168    0.912      8.074e-004    0.672    7.513e+001    1.408e+000    
4.504    3.328    18.020      1.470         1.618     1.176    0.911      8.215e-004    0.666    7.293e+001    1.404e+000    
4.504    3.320    18.020      1.467         1.636     1.184    0.910      8.354e-004    0.660    7.364e+001    1.365e+000    
4.504    3.312    18.020      1.463         1.654     1.192    0.910      8.492e-004    0.654    7.027e+001    1.326e+000    
4.504    3.304    18.020      1.460         1.674     1.200    0.909      8.657e-004    0.648    7.001e+001    1.326e+000    
4.504    3.296    18.020      1.456         1.693     1.208    0.909      8.793e-004    0.642    7.157e+001    1.339e+000    
4.504    3.288    18.020      1.453         1.711     1.216    0.908      8.926e-004    0.637    6.896e+001    1.334e+000    
4.504    3.280    18.020      1.449         1.729     1.224    0.907      9.059e-004    0.631    7.224e+001    1.365e+000    
4.504    3.272    18.020      1.446         1.748     1.232    0.907      9.190e-004    0.625    7.038e+001    1.330e+000    
4.504    3.264    18.020      1.442         1.766     1.240    0.906      9.319e-004    0.620    6.845e+001    1.314e+000    
4.504    3.256    18.020      1.439         1.785     1.248    0.905      9.447e-004    0.614    7.017e+001    1.282e+000    
4.504    3.248    18.020      1.435         1.804     1.256    0.905      9.574e-004    0.609    6.773e+001    1.291e+000    
4.504    3.240    18.020      1.432         1.823     1.264    0.904      9.700e-004    0.604    6.934e+001    1.305e+000    
4.504    3.232    18.020      1.428         1.841     1.272    0.903      9.824e-004    0.598    6.819e+001    1.334e+000    
4.504    3.224    18.020      1.425         1.858     1.280    0.902      9.918e-004    0.593    7.120e+001    1.337e+000    
4.504    3.216    18.020      1.421         1.877     1.288    0.902      1.004e-003    0.588    6.954e+001    1.312e+000    
4.504    3.208    18.020      1.417         1.896     1.296    0.901      1.016e-003    0.583    7.263e+001    1.337e+000    
4.504    3.200    18.020      1.414         1.915     1.304    0.900      1.028e-003    0.578    7.028e+001    1.319e+000    
4.504    3.192    18.020      1.410         1.932     1.312    0.900      1.037e-003    0.573    7.254e+001    1.364e+000    
4.504    3.184    18.020      1.407         1.952     1.320    0.899      1.048e-003    0.568    7.667e+001    1.430e+000    
4.504    3.176    18.020      1.403         1.971     1.328    0.898      1.060e-003    0.563    7.383e+001    1.395e+000    
4.504    3.168    18.020      1.400         1.988     1.336    0.897      1.068e-003    0.558    7.803e+001    1.423e+000    
4.504    3.160    18.020      1.396         2.008     1.344    0.897      1.080e-003    0.554    7.875e+001    1.450e+000    
4.504    3.152    18.020      1.393         2.025     1.352    0.896      1.088e-003    0.549    7.856e+001    1.437e+000    
4.504    3.144    18.020      1.389         2.045     1.360    0.895      1.099e-003    0.544    8.292e+001    1.492e+000    
4.504    3.136    18.020      1.386         2.062     1.368    0.894      1.107e-003    0.540    8.471e+001    1.565e+000    
4.504    3.128    18.020      1.382         2.082     1.376    0.894      1.118e-003    0.535    8.767e+001    1.595e+000    
4.504    3.120    18.020      1.379         2.100     1.384    0.893      1.125e-003    0.531    8.796e+001    1.601e+000    
4.504    3.112    18.020      1.375         2.117     1.392    0.892      1.133e-003    0.526    8.762e+001    1.553e+000    
4.504    3.104    18.020      1.372         2.137     1.400    0.891      1.143e-003    0.522    8.855e+001    1.594e+000    
4.504    3.096    18.020      1.368         2.155     1.408    0.890      1.151e-003    0.518    9.162e+001    1.658e+000    
4.504    3.088    18.020      1.364         2.173     1.416    0.890      1.158e-003    0.513    9.493e+001    1.740e+000    
4.504    3.080    18.020      1.361         2.193     1.424    0.889      1.168e-003    0.509    9.423e+001    1.679e+000    
4.504    3.072    18.020      1.357         2.211     1.432    0.888      1.175e-003    0.505    9.810e+001    1.753e+000    
4.504    3.064    18.020      1.354         2.229     1.440    0.887      1.182e-003    0.501    1.001e+002    1.715e+000    
4.504    3.056    18.020      1.350         2.247     1.448    0.886      1.189e-003    0.497    1.020e+002    1.782e+000    
4.504    3.048    18.020      1.347         2.268     1.456    0.885      1.199e-003    0.493    1.028e+002    1.803e+000    
4.504    3.040    18.020      1.343         2.286     1.464    0.885      1.206e-003    0.489    1.029e+002    1.835e+000    
4.504    3.032    18.020      1.340         2.304     1.472    0.884      1.212e-003    0.485    1.067e+002    1.871e+000    
4.504    3.024    18.020      1.336         2.323     1.480    0.883      1.219e-003    0.481    1.063e+002    1.816e+000    
4.504    3.016    18.020      1.333         2.341     1.488    0.882      1.225e-003    0.477    1.065e+002    1.798e+000    
4.504    3.008    18.020      1.329         2.359     1.496    0.881      1.231e-003    0.473    1.068e+002    1.812e+000    
4.504    3.000    18.020      1.326         2.378     1.504    0.880      1.238e-003    0.470    1.044e+002    1.867e+000    
4.504    2.992    18.020      1.322         2.396     1.512    0.879      1.244e-003    0.466    1.078e+002    1.880e+000    
4.504    2.984    18.020      1.318         2.415     1.520    0.878      1.250e-003    0.462    1.097e+002    1.888e+000    
4.504    2.976    18.020      1.315         2.434     1.528    0.878      1.256e-003    0.459    1.081e+002    1.826e+000    
4.504    2.968    18.020      1.311         2.452     1.536    0.877      1.261e-003    0.455    1.044e+002    1.798e+000    
4.504    2.960    18.020      1.308         2.471     1.544    0.876      1.267e-003    0.451    1.014e+002    1.795e+000    
4.504    2.952    18.020      1.304         2.490     1.552    0.875      1.273e-003    0.448    1.087e+002    1.904e+000    
4.504    2.944    18.020      1.301         2.509     1.560    0.874      1.278e-003    0.444    1.046e+002    1.840e+000    
4.504    2.936    18.020      1.297         2.525     1.568    0.873      1.281e-003    0.441    1.073e+002    1.844e+000    
4.504    2.928    18.020      1.294         2.544     1.576    0.872      1.287e-003    0.437    1.074e+002    1.821e+000    
4.504    2.920    18.020      1.290         2.563     1.584    0.871      1.292e-003    0.434    1.082e+002    1.860e+000    
4.504    2.912    18.020      1.287         2.582     1.592    0.870      1.297e-003    0.431    1.071e+002    1.875e+000    
4.504    2.904    18.020      1.283         2.602     1.600    0.869      1.302e-003    0.427    1.103e+002    1.946e+000    
4.504    2.896    18.020      1.280         2.618     1.608    0.868      1.305e-003    0.424    1.089e+002    1.888e+000    
4.504    2.888    18.020      1.276         2.637     1.616    0.867      1.310e-003    0.421    1.114e+002    1.859e+000    
4.504    2.880    18.020      1.273         2.657     1.624    0.866      1.314e-003    0.418    1.136e+002    1.923e+000    
4.504    2.872    18.020      1.269         2.673     1.632    0.865      1.317e-003    0.414    1.087e+002    1.881e+000    
4.504    2.864    18.020      1.265         2.693     1.640    0.864      1.321e-003    0.411    1.167e+002    2.057e+000    
4.504    2.856    18.020      1.262         2.713     1.648    0.863      1.326e-003    0.408    1.156e+002    2.012e+000    
4.504    2.848    18.020      1.258         2.729     1.656    0.862      1.328e-003    0.405    1.155e+002    1.990e+000    
4.504    2.840    18.020      1.255         2.749     1.664    0.861      1.332e-003    0.402    1.162e+002    1.975e+000    
4.504    2.832    18.020      1.251         2.769     1.672    0.860      1.337e-003    0.399    1.194e+002    2.046e+000    
4.504    2.824    18.020      1.248         2.786     1.680    0.859      1.339e-003    0.396    1.207e+002    2.116e+000    
4.504    2.816    18.020      1.244         2.806     1.688    0.858      1.343e-003    0.393    1.251e+002    2.169e+000    
4.504    2.808    18.020      1.241         2.822     1.696    0.857      1.345e-003    0.390    1.239e+002    2.126e+000    
4.504    2.800    18.020      1.237         2.843     1.704    0.856      1.349e-003    0.387    1.224e+002    2.074e+000    
4.504    2.792    18.020      1.234         2.859     1.712    0.855      1.350e-003    0.384    1.204e+002    2.076e+000    
4.504    2.784    18.020      1.230         2.880     1.720    0.854      1.354e-003    0.381    1.230e+002    2.150e+000    
4.504    2.776    18.020      1.227         2.897     1.728    0.853      1.356e-003    0.378    1.259e+002    2.191e+000    
4.504    2.768    18.020      1.223         2.917     1.736    0.852      1.359e-003    0.375    1.281e+002    2.161e+000    
4.504    2.760    18.020      1.220         2.934     1.744    0.851      1.361e-003    0.373    1.266e+002    2.105e+000    
4.504    2.752    18.020      1.216         2.952     1.752    0.849      1.362e-003    0.370    1.217e+002    2.064e+000    
4.504    2.744    18.020      1.212         2.972     1.760    0.848      1.366e-003    0.367    1.255e+002    2.146e+000    
4.504    2.736    18.020      1.209         2.989     1.768    0.847      1.367e-003    0.364    1.261e+002    2.168e+000    
4.504    2.728    18.020      1.205         3.010     1.776    0.846      1.370e-003    0.362    1.265e+002    2.143e+000    
4.504    2.720    18.020      1.202         3.028     1.784    0.845      1.372e-003    0.359    1.286e+002    2.118e+000    
4.504    2.712    18.020      1.198         3.045     1.792    0.844      1.373e-003    0.356    1.214e+002    2.033e+000    
4.504    2.704    18.020      1.195         3.063     1.800    0.843      1.374e-003    0.354    1.265e+002    2.133e+000    
4.504    2.696    18.020      1.191         3.084     1.808    0.842      1.377e-003    0.351    1.245e+002    2.110e+000    
4.504    2.688    18.020      1.188         3.101     1.816    0.840      1.378e-003    0.349    1.237e+002    2.125e+000    
4.504    2.680    18.020      1.184         3.119     1.824    0.839      1.379e-003    0.346    1.257e+002    2.079e+000    
4.504    2.672    18.020      1.181         3.140     1.832    0.838      1.382e-003    0.343    1.226e+002    2.055e+000    
4.504    2.664    18.020      1.177         3.158     1.840    0.837      1.382e-003    0.341    1.236e+002    2.057e+000    
4.504    2.656    18.020      1.174         3.176     1.848    0.836      1.383e-003    0.338    1.262e+002    2.160e+000    
4.504    2.648    18.020      1.170         3.193     1.856    0.834      1.384e-003    0.336    1.256e+002    2.094e+000    
4.504    2.640    18.020      1.166         3.211     1.864    0.833      1.384e-003    0.333    1.212e+002    2.035e+000    
4.504    2.632    18.020      1.163         3.233     1.872    0.832      1.387e-003    0.331    1.229e+002    2.049e+000    
4.504    2.624    18.020      1.159         3.251     1.880    0.831      1.388e-003    0.329    1.242e+002    2.070e+000    
4.504    2.616    18.020      1.156         3.269     1.888    0.830      1.388e-003    0.326    1.205e+002    2.084e+000    
4.504    2.608    18.020      1.152         3.287     1.896    0.828      1.389e-003    0.324    1.231e+002    2.092e+000    
4.504    2.600    18.020      1.149         3.305     1.904    0.827      1.389e-003    0.322    1.225e+002    2.049e+000    
4.504    2.592    18.020      1.145         3.323     1.912    0.826      1.389e-003    0.319    1.222e+002    2.034e+000    
4.504    2.584    18.020      1.142         3.342     1.920    0.825      1.390e-003    0.317    1.267e+002    2.086e+000    
4.504    2.576    18.020      1.138         3.360     1.928    0.823      1.390e-003    0.315    1.235e+002    2.096e+000    
4.504    2.568    18.020      1.135         3.378     1.936    0.822      1.390e-003    0.312    1.257e+002    2.119e+000    
4.504    2.560    18.020      1.131         3.397     1.944    0.821      1.391e-003    0.310    1.221e+002    2.009e+000    
4.504    2.552    18.020      1.128         3.415     1.952    0.820      1.391e-003    0.308    1.217e+002    2.015e+000    
4.504    2.544    18.020      1.124         3.434     1.960    0.818      1.391e-003    0.306    1.244e+002    2.040e+000    
4.504    2.536    18.020      1.121         3.452     1.968    0.817      1.391e-003    0.303    1.240e+002    2.039e+000    
4.504    2.528    18.020      1.117         3.471     1.976    0.816      1.391e-003    0.301    1.268e+002    2.053e+000    
4.504    2.520    18.020      1.113         3.489     1.984    0.814      1.391e-003    0.299    1.232e+002    1.983e+000    
4.504    2.512    18.020      1.110         3.508     1.992    0.813      1.391e-003    0.297    1.254e+002    1.997e+000    
4.504    2.504    18.020      1.106         3.527     2.000    0.812      1.391e-003    0.295    1.274e+002    2.047e+000    
4.504    2.496    18.020      1.103         3.546     2.008    0.810      1.391e-003    0.293    1.297e+002    2.052e+000    
4.504    2.488    18.020      1.099         3.565     2.016    0.809      1.391e-003    0.291    1.236e+002    1.967e+000    
4.504    2.480    18.020      1.096         3.583     2.024    0.808      1.391e-003    0.289    1.260e+002    1.986e+000    
4.504    2.472    18.020      1.092         3.602     2.032    0.806      1.391e-003    0.286    1.266e+002    2.010e+000    
4.504    2.464    18.020      1.089         3.621     2.040    0.805      1.391e-003    0.284    1.277e+002    2.061e+000    
4.504    2.456    18.020      1.085         3.640     2.048    0.803      1.390e-003    0.282    1.295e+002    2.046e+000    
4.504    2.448    18.020      1.082         3.660     2.056    0.802      1.390e-003    0.280    1.320e+002    2.053e+000    
4.504    2.440    18.020      1.078         3.675     2.064    0.801      1.388e-003    0.278    1.286e+002    2.023e+000    
4.504    2.432    18.020      1.075         3.694     2.072    0.799      1.388e-003    0.276    1.269e+002    2.030e+000    
4.504    2.424    18.020      1.071         3.713     2.080    0.798      1.387e-003    0.274    1.283e+002    2.090e+000    
4.504    2.416    18.020      1.068         3.733     2.088    0.796      1.387e-003    0.272    1.288e+002    2.086e+000    
4.504    2.408    18.020      1.064         3.752     2.096    0.795      1.387e-003    0.271    1.249e+002    2.001e+000    
4.504    2.400    18.020      1.060         3.767     2.104    0.794      1.385e-003    0.269    1.258e+002    2.017e+000    
4.504    2.392    18.020      1.057         3.787     2.112    0.792      1.384e-003    0.267    1.252e+002    2.045e+000    
4.504    2.384    18.020      1.053         3.806     2.120    0.791      1.384e-003    0.265    1.294e+002    2.107e+000    
4.504    2.376    18.020      1.050         3.826     2.128    0.789      1.383e-003    0.263    1.258e+002    2.004e+000    
4.504    2.368    18.020      1.046         3.842     2.136    0.788      1.381e-003    0.261    1.265e+002    2.004e+000    
4.504    2.360    18.020      1.043         3.861     2.144    0.786      1.380e-003    0.259    1.286e+002    2.067e+000    
4.504    2.352    18.020      1.039         3.881     2.152    0.785      1.380e-003    0.257    1.284e+002    2.055e+000    
4.504    2.344    18.020      1.036         3.901     2.160    0.783      1.379e-003    0.256    1.287e+002    2.096e+000    
4.504    2.336    18.020      1.032         3.916     2.168    0.782      1.377e-003    0.254    1.247e+002    2.076e+000    
4.504    2.328    18.020      1.029         3.936     2.176    0.780      1.376e-003    0.252    1.281e+002    2.193e+000    
4.504    2.320    18.020      1.025         3.956     2.184    0.779      1.376e-003    0.250    1.293e+002    2.305e+000    
4.504    2.312    18.020      1.022         3.972     2.192    0.777      1.373e-003    0.248    1.317e+002    2.542e+000    
4.504    2.304    18.020      1.018         3.992     2.200    0.776      1.373e-003    0.247    1.286e+002    2.610e+000    
